lsl_timestamp,TP9,AF7,AF8,TP10
1769484258.719125,-20.5078125,-28.3203125,-59.5703125,-132.8125
1769484258.7230313,-19.53125,-26.85546875,-57.6171875,-119.140625
1769484258.7269375,-75.68359375,-29.296875,-49.8046875,-133.7890625
1769484258.7308438,-72.75390625,-31.25,-51.7578125,-141.6015625
1769484258.73475,-50.78125,-34.66796875,-56.15234375,-135.7421875
1769484258.7386563,-41.9921875,-41.015625,-55.6640625,-126.46484375
1769484258.7425625,-56.15234375,-41.9921875,-53.22265625,-128.41796875
1769484258.7464688,-46.875,-45.8984375,-55.17578125,-113.76953125
1769484258.750375,-36.62109375,-38.57421875,-54.19921875,-49.8046875
1769484258.7542813,-30.76171875,-36.62109375,-55.17578125,-30.2734375
1769484258.7581875,-48.33984375,-47.8515625,-54.19921875,-44.921875
1769484258.7620938,-72.265625,-43.45703125,-48.828125,-44.921875
1769484258.765125,-42.48046875,-37.59765625,-51.26953125,-30.76171875
1769484258.7690313,-30.2734375,-26.85546875,-48.33984375,-31.25
1769484258.7729375,-44.43359375,-29.296875,-48.828125,-70.3125
1769484258.7768438,-45.41015625,-38.0859375,-51.26953125,-101.5625
1769484258.78075,-35.64453125,-25.390625,-49.31640625,-123.046875
1769484258.7846563,-5.37109375,-20.99609375,-51.7578125,-101.07421875
1769484258.7885625,-13.671875,-32.2265625,-51.26953125,-56.640625
1769484258.7924688,-36.62109375,-32.2265625,-48.33984375,-61.03515625
1769484258.796375,-39.0625,-30.76171875,-50.29296875,-33.203125
1769484258.8002813,-31.25,-36.62109375,-44.921875,2.44140625
1769484258.8041875,-22.94921875,-41.50390625,-42.48046875,0.0
1769484258.8080938,-42.96875,-42.96875,-49.31640625,-23.92578125
1769484258.840125,-57.6171875,-39.0625,-47.8515625,-57.6171875
1769484258.8440313,-26.3671875,-38.57421875,-45.41015625,-45.8984375
1769484258.8479376,0.0,-37.109375,-45.8984375,-17.578125
1769484258.8518438,-38.57421875,-39.0625,-42.48046875,-33.203125
1769484258.85575,-69.82421875,-40.52734375,-39.0625,-29.296875
1769484258.8596563,-45.8984375,-40.0390625,-42.96875,-19.04296875
1769484258.8635626,-22.4609375,-35.15625,-43.45703125,-26.3671875
1769484258.8674688,-35.15625,-28.3203125,-37.109375,-22.4609375
1769484258.871375,-68.359375,-25.390625,-33.69140625,-15.625
1769484258.8752813,-44.43359375,-30.76171875,-32.2265625,-13.671875
1769484258.8791876,-17.08984375,-33.203125,-40.52734375,-17.578125
1769484258.8830938,-40.0390625,-33.203125,-45.41015625,-42.96875
1769484258.855125,-43.9453125,-29.296875,-41.015625,-74.21875
1769484258.8590312,-40.52734375,-26.85546875,-41.9921875,-103.515625
1769484258.8629375,-29.296875,-21.484375,-47.8515625,-112.79296875
1769484258.8668437,-25.390625,-18.5546875,-50.78125,-106.4453125
1769484258.87075,-28.3203125,-25.390625,-51.26953125,-139.16015625
1769484258.8746562,-23.92578125,-22.94921875,-48.33984375,-145.5078125
1769484258.8785625,-15.625,-20.5078125,-47.36328125,-143.5546875
1769484258.8824687,4.8828125,-18.06640625,-50.29296875,-145.5078125
1769484258.886375,-18.06640625,-19.53125,-48.33984375,-146.97265625
1769484258.8902812,-42.96875,-26.3671875,-44.43359375,-169.43359375
1769484258.8941875,-28.80859375,-24.4140625,-42.96875,-192.3828125
1769484258.8980937,-14.16015625,-21.484375,-41.015625,-179.6875
1769484258.914125,-20.99609375,-26.85546875,-41.50390625,-170.41015625
1769484258.9180312,-27.83203125,-28.3203125,-35.64453125,-193.84765625
1769484258.9219375,-35.15625,-31.25,-35.15625,-194.82421875
1769484258.9258437,-19.53125,-34.1796875,-41.50390625,-163.57421875
1769484258.92975,-7.32421875,-35.15625,-40.0390625,-153.3203125
1769484258.9336562,-43.45703125,-43.45703125,-40.0390625,-147.4609375
1769484258.9375625,-53.7109375,-40.0390625,-42.96875,-145.01953125
1769484258.9414687,-21.484375,-27.34375,-45.8984375,-127.44140625
1769484258.945375,-12.20703125,-28.3203125,-49.8046875,-103.02734375
1769484258.9492812,-35.15625,-29.296875,-46.875,-126.953125
1769484258.9531875,-55.17578125,-21.97265625,-41.9921875,-165.52734375
1769484258.9570937,-26.85546875,-18.5546875,-40.52734375,-177.24609375
1769484258.960125,-0.9765625,-17.578125,-45.41015625,-163.57421875
1769484258.9640312,-18.5546875,-26.3671875,-48.33984375,-149.4140625
1769484258.9679375,-41.50390625,-31.25,-48.33984375,-158.203125
1769484258.9718437,-38.0859375,-29.296875,-44.921875,-161.62109375
1769484258.97575,-13.18359375,-31.25,-41.50390625,-138.18359375
1769484258.9796562,-29.78515625,-30.2734375,-39.55078125,-140.625
1769484258.9835625,-53.7109375,-35.64453125,-48.33984375,-186.5234375
1769484258.9874687,-42.48046875,-31.73828125,-49.8046875,-186.03515625
1769484258.991375,-17.578125,-27.83203125,-39.0625,-160.64453125
1769484258.9952812,-20.01953125,-37.59765625,-39.55078125,-161.62109375
1769484258.9991875,-47.8515625,-30.2734375,-40.52734375,-140.625
1769484259.0030937,-53.22265625,-19.53125,-41.015625,-122.0703125
1769484259.008125,-33.69140625,-18.06640625,-38.57421875,-101.5625
1769484259.0120313,-4.8828125,-20.99609375,-41.50390625,-100.5859375
1769484259.0159376,-11.71875,-19.04296875,-53.7109375,-155.76171875
1769484259.0198438,-47.36328125,-18.5546875,-56.640625,-195.3125
1769484259.02375,-35.15625,-21.97265625,-53.7109375,-168.45703125
1769484259.0276563,-25.390625,-25.390625,-54.19921875,-151.3671875
1769484259.0315626,-27.34375,-27.34375,-51.7578125,-168.9453125
1769484259.0354688,-33.69140625,-22.4609375,-49.31640625,-184.08203125
1769484259.039375,-40.52734375,-15.625,-41.50390625,-147.4609375
1769484259.0432813,-21.97265625,-21.97265625,-36.1328125,-118.65234375
1769484259.0471876,-26.3671875,-27.83203125,-36.62109375,-124.51171875
1769484259.0510938,-36.1328125,-29.78515625,-36.62109375,-132.8125
1769484259.050125,-44.43359375,-30.76171875,-39.0625,-123.046875
1769484259.0540311,-34.1796875,-31.25,-34.1796875,-113.76953125
1769484259.0579374,-32.71484375,-35.64453125,-36.62109375,-129.8828125
1769484259.0618436,-60.546875,-44.921875,-46.38671875,-143.5546875
1769484259.06575,-79.58984375,-44.43359375,-43.9453125,-143.5546875
1769484259.0696561,-62.5,-43.9453125,-43.9453125,-129.39453125
1769484259.0735624,-41.50390625,-43.45703125,-42.96875,-107.91015625
1769484259.0774686,-57.6171875,-37.59765625,-40.0390625,-114.2578125
1769484259.081375,-59.5703125,-39.55078125,-45.41015625,-135.25390625
1769484259.0852811,-44.921875,-37.109375,-51.7578125,-119.140625
1769484259.0891874,-59.5703125,-34.1796875,-45.8984375,-96.19140625
1769484259.0930936,-52.734375,-33.203125,-41.015625,-126.46484375
1769484259.094125,-35.64453125,-25.390625,-42.96875,-153.80859375
1769484259.0980313,-54.6875,-21.484375,-43.45703125,-141.11328125
1769484259.1019375,-33.69140625,-27.83203125,-40.0390625,-105.95703125
1769484259.1058438,-19.53125,-35.15625,-43.9453125,-115.234375
1769484259.10975,-51.26953125,-39.0625,-47.8515625,-139.16015625
1769484259.1136563,-58.10546875,-40.0390625,-47.36328125,-124.0234375
1769484259.1175625,-25.87890625,-36.62109375,-45.8984375,-125.9765625
1769484259.1214688,-19.53125,-36.62109375,-41.015625,-137.6953125
1769484259.125375,-35.64453125,-34.1796875,-38.57421875,-132.8125
1769484259.1292813,-44.921875,-36.1328125,-39.55078125,-125.0
1769484259.1331875,-36.62109375,-40.52734375,-41.50390625,-104.00390625
1769484259.1370938,-18.5546875,-28.3203125,-37.109375,-99.12109375
1769484259.141125,-50.78125,-29.296875,-39.0625,-137.6953125
1769484259.1450312,-57.6171875,-37.109375,-41.015625,-127.44140625
1769484259.1489375,-35.15625,-38.57421875,-40.52734375,-109.86328125
1769484259.1528437,-31.73828125,-36.1328125,-42.48046875,-109.375
1769484259.15675,-25.87890625,-25.87890625,-43.45703125,-112.3046875
1769484259.1606562,-44.921875,-22.94921875,-42.48046875,-109.86328125
1769484259.1645625,-51.7578125,-27.83203125,-36.62109375,-92.7734375
1769484259.1684687,-16.6015625,-31.25,-40.0390625,-78.61328125
1769484259.172375,-28.80859375,-31.73828125,-50.29296875,-71.2890625
1769484259.1762812,-50.29296875,-37.109375,-44.43359375,-85.9375
1769484259.1801875,-54.6875,-44.921875,-40.0390625,-76.66015625
1769484259.1840937,-35.64453125,-45.41015625,-41.9921875,-63.96484375
1769484259.215125,-16.11328125,-41.9921875,-41.9921875,-87.40234375
1769484259.2190313,-44.43359375,-46.38671875,-41.9921875,-126.46484375
1769484259.2229376,-52.734375,-48.33984375,-44.43359375,-142.08984375
1769484259.2268438,-43.45703125,-47.36328125,-45.8984375,-117.1875
1769484259.23075,-41.9921875,-52.734375,-46.875,-61.03515625
1769484259.2346563,-40.52734375,-46.38671875,-48.828125,-29.296875
1769484259.2385626,-52.734375,-40.52734375,-46.875,-20.99609375
1769484259.2424688,-22.4609375,-31.25,-42.96875,-3.90625
1769484259.246375,-15.625,-25.390625,-40.0390625,35.15625
1769484259.2502813,-45.8984375,-35.64453125,-40.52734375,45.8984375
1769484259.2541876,-51.7578125,-34.66796875,-46.38671875,1.953125
1769484259.2580938,-57.6171875,-29.296875,-47.36328125,3.90625
1769484259.233125,-53.7109375,-30.2734375,-43.9453125,38.57421875
1769484259.2370312,-34.66796875,-31.25,-43.9453125,59.08203125
1769484259.2409375,-47.8515625,-34.66796875,-41.50390625,59.5703125
1769484259.2448437,-60.05859375,-34.66796875,-39.55078125,32.2265625
1769484259.24875,-23.92578125,-32.2265625,-38.0859375,41.9921875
1769484259.2526562,-4.8828125,-38.0859375,-38.57421875,82.51953125
1769484259.2565625,-50.78125,-41.9921875,-41.015625,84.9609375
1769484259.2604687,-57.12890625,-38.57421875,-41.9921875,60.546875
1769484259.264375,-24.90234375,-38.57421875,-33.203125,71.77734375
1769484259.2682812,-32.2265625,-42.96875,-31.25,84.47265625
1769484259.2721875,-28.3203125,-39.55078125,-35.15625,48.33984375
1769484259.2760937,-45.41015625,-32.2265625,-33.203125,37.59765625
1769484259.275125,-52.734375,-38.57421875,-36.62109375,60.05859375
1769484259.2790313,-24.90234375,-42.96875,-36.62109375,76.171875
1769484259.2829375,-11.23046875,-34.66796875,-35.64453125,60.546875
1769484259.2868438,-43.45703125,-25.87890625,-37.109375,29.296875
1769484259.29075,-56.640625,-24.90234375,-36.62109375,38.57421875
1769484259.2946563,-23.92578125,-28.3203125,-40.52734375,70.3125
1769484259.2985625,-21.484375,-26.85546875,-45.41015625,68.359375
1769484259.3024688,-50.29296875,-24.4140625,-44.921875,21.97265625
1769484259.306375,-66.40625,-29.296875,-37.109375,-15.13671875
1769484259.3102813,-29.78515625,-33.69140625,-33.69140625,-16.6015625
1769484259.3141875,-22.4609375,-34.66796875,-41.9921875,-25.87890625
1769484259.3180938,-62.01171875,-42.48046875,-48.33984375,-52.24609375
1769484259.323125,-75.68359375,-48.828125,-44.921875,-74.70703125
1769484259.3270311,-51.26953125,-48.828125,-44.43359375,-56.640625
1769484259.3309374,-29.78515625,-46.875,-44.921875,-54.6875
1769484259.3348436,-42.96875,-44.43359375,-40.52734375,-79.58984375
1769484259.33875,-66.89453125,-53.22265625,-37.109375,-83.984375
1769484259.3426561,-69.82421875,-53.22265625,-35.64453125,-57.6171875
1769484259.3465624,-22.94921875,-45.41015625,-37.59765625,-19.53125
1769484259.3504686,-8.7890625,-44.921875,-39.0625,-16.11328125
1769484259.354375,-62.01171875,-50.29296875,-34.66796875,-36.1328125
1769484259.3582811,-44.43359375,-50.78125,-35.15625,-41.50390625
1769484259.3621874,-20.5078125,-44.43359375,-40.0390625,-17.578125
1769484259.3660936,-34.1796875,-46.875,-32.71484375,-13.18359375
1769484259.380125,-37.109375,-53.7109375,-30.2734375,-43.9453125
1769484259.3840313,-51.7578125,-44.43359375,-31.73828125,-92.7734375
1769484259.3879375,-30.76171875,-42.96875,-31.25,-87.890625
1769484259.3918438,0.9765625,-45.41015625,-31.73828125,-59.5703125
1769484259.39575,-15.625,-48.33984375,-30.2734375,-65.91796875
1769484259.3996563,-49.31640625,-53.22265625,-26.85546875,-76.66015625
1769484259.4035625,-43.45703125,-37.59765625,-29.296875,-70.80078125
1769484259.4074688,-16.6015625,-43.45703125,-32.2265625,-47.36328125
1769484259.411375,-21.484375,-54.6875,-29.78515625,-50.29296875
1769484259.4152813,-41.015625,-51.7578125,-34.66796875,-66.40625
1769484259.4191875,-29.296875,-48.828125,-37.59765625,-55.6640625
1769484259.4230938,-23.92578125,-47.36328125,-41.015625,-33.203125
1769484259.425125,-47.8515625,-55.17578125,-46.38671875,-34.1796875
1769484259.4290311,-74.70703125,-51.26953125,-45.8984375,-75.1953125
1769484259.4329374,-75.1953125,-48.33984375,-49.31640625,-86.9140625
1769484259.4368436,-34.1796875,-46.38671875,-44.43359375,-59.08203125
1769484259.44075,-4.8828125,-36.62109375,-37.109375,-29.78515625
1769484259.4446561,-58.59375,-37.109375,-45.8984375,-36.62109375
1769484259.4485624,-77.1484375,-39.0625,-46.38671875,-60.05859375
1769484259.4524686,-47.8515625,-35.15625,-40.0390625,-39.0625
1769484259.456375,-45.8984375,-38.0859375,-42.48046875,-34.66796875
1769484259.4602811,-38.57421875,-33.69140625,-45.41015625,-72.75390625
1769484259.4641874,-57.12890625,-30.2734375,-40.52734375,-103.02734375
1769484259.4680936,-66.89453125,-32.71484375,-36.1328125,-114.2578125
1769484259.469125,-23.92578125,-28.3203125,-38.0859375,-109.375
1769484259.4730313,-20.01953125,-30.2734375,-36.62109375,-118.1640625
1769484259.4769375,-54.6875,-26.3671875,-37.109375,-140.13671875
1769484259.4808438,-75.1953125,-31.73828125,-36.62109375,-130.859375
1769484259.48475,-57.6171875,-37.59765625,-36.1328125,-94.23828125
1769484259.4886563,-28.3203125,-27.34375,-39.0625,-81.54296875
1769484259.4925625,-56.640625,-36.1328125,-38.57421875,-103.02734375
1769484259.4964688,-81.0546875,-51.26953125,-38.57421875,-120.1171875
1769484259.500375,-55.17578125,-48.828125,-40.52734375,-132.8125
1769484259.5042813,-36.1328125,-42.48046875,-41.9921875,-115.234375
1769484259.5081875,-50.78125,-50.78125,-37.109375,-104.98046875
1769484259.5120938,-62.5,-52.24609375,-35.64453125,-102.5390625
1769484259.514125,-33.69140625,-45.41015625,-40.52734375,-105.46875
1769484259.5180314,-11.71875,-42.96875,-39.55078125,-84.9609375
1769484259.5219376,-33.69140625,-46.38671875,-39.55078125,-53.22265625
1769484259.5258439,-49.31640625,-42.96875,-30.2734375,-61.03515625
1769484259.52975,-27.83203125,-40.0390625,-26.85546875,-65.91796875
1769484259.5336564,-10.7421875,-46.875,-35.15625,-66.40625
1769484259.5375626,-21.97265625,-55.6640625,-37.59765625,-95.703125
1769484259.5414689,-42.96875,-47.8515625,-35.15625,-117.1875
1769484259.545375,-50.78125,-38.0859375,-34.1796875,-122.55859375
1769484259.5492814,-57.12890625,-50.29296875,-40.52734375,-105.46875
1769484259.5531876,-47.36328125,-54.19921875,-43.45703125,-77.63671875
1769484259.5570939,-41.015625,-42.96875,-37.109375,-85.9375
1769484259.560125,-61.5234375,-33.69140625,-37.109375,-89.84375
1769484259.5640314,-55.17578125,-34.66796875,-36.1328125,-60.05859375
1769484259.5679376,-45.8984375,-41.50390625,-31.25,-26.3671875
1769484259.5718439,-53.22265625,-43.45703125,-34.1796875,-10.7421875
1769484259.57575,-50.29296875,-35.64453125,-41.9921875,-12.20703125
1769484259.5796564,-41.015625,-38.57421875,-38.0859375,-0.9765625
1769484259.5835626,-36.1328125,-43.9453125,-31.73828125,18.5546875
1769484259.5874689,-46.38671875,-41.015625,-31.73828125,29.296875
1769484259.591375,-61.03515625,-45.41015625,-31.25,40.52734375
1769484259.5952814,-60.546875,-47.36328125,-35.64453125,54.19921875
1769484259.5991876,-37.109375,-40.0390625,-39.0625,68.359375
1769484259.6030939,-31.73828125,-30.76171875,-41.015625,61.5234375
1769484259.604125,-41.50390625,-36.62109375,-35.64453125,52.24609375
1769484259.6080313,-63.96484375,-46.38671875,-35.64453125,62.01171875
1769484259.6119375,-41.50390625,-42.96875,-39.55078125,84.9609375
1769484259.6158438,-20.99609375,-32.2265625,-36.1328125,94.23828125
1769484259.61975,-52.24609375,-41.50390625,-30.2734375,68.84765625
1769484259.6236563,-70.3125,-51.7578125,-27.83203125,48.33984375
1769484259.6275625,-35.15625,-41.50390625,-37.109375,46.38671875
1769484259.6314688,-25.87890625,-36.62109375,-39.55078125,52.734375
1769484259.635375,-41.015625,-39.55078125,-36.62109375,42.48046875
1769484259.6392813,-55.6640625,-39.55078125,-37.109375,7.8125
1769484259.6431875,-41.9921875,-37.59765625,-41.015625,4.8828125
1769484259.6470938,-9.27734375,-33.69140625,-38.57421875,24.4140625
1769484259.665125,-14.6484375,-31.73828125,-34.1796875,8.30078125
1769484259.6690311,-56.15234375,-47.8515625,-32.2265625,-17.08984375
1769484259.6729374,-52.734375,-47.8515625,-29.78515625,1.953125
1769484259.6768436,-9.765625,-38.0859375,-31.73828125,20.99609375
1769484259.68075,-9.765625,-39.55078125,-33.69140625,3.41796875
1769484259.6846561,-39.0625,-46.875,-36.62109375,-28.3203125
1769484259.6885624,-45.41015625,-51.26953125,-34.66796875,-64.94140625
1769484259.6924686,-16.6015625,-52.734375,-34.66796875,-70.80078125
1769484259.696375,-12.20703125,-62.01171875,-37.59765625,-61.5234375
1769484259.7002811,-59.5703125,-58.10546875,-40.0390625,-78.125
1769484259.7041874,-66.89453125,-50.78125,-43.45703125,-93.26171875
1769484259.7080936,-45.41015625,-55.6640625,-37.59765625,-70.80078125
1769484259.724125,-31.25,-53.7109375,-33.203125,-49.31640625
1769484259.7280312,-20.01953125,-40.52734375,-32.71484375,-49.31640625
1769484259.7319374,-42.96875,-31.73828125,-28.3203125,-40.0390625
1769484259.7358437,-36.1328125,-34.1796875,-25.390625,-13.671875
1769484259.73975,0.9765625,-28.80859375,-23.92578125,-18.06640625
1769484259.7436562,-13.671875,-28.80859375,-23.92578125,-63.4765625
1769484259.7475624,-43.45703125,-38.57421875,-22.94921875,-111.328125
1769484259.7514687,-36.62109375,-40.52734375,-20.5078125,-120.1171875
1769484259.755375,-21.484375,-41.50390625,-20.5078125,-98.6328125
1769484259.7592812,-16.11328125,-40.0390625,-23.4375,-109.375
1769484259.7631874,-33.203125,-32.71484375,-27.34375,-146.97265625
1769484259.7670937,-36.62109375,-36.1328125,-26.3671875,-155.2734375
1769484259.754125,-14.16015625,-41.015625,-28.80859375,-141.11328125
1769484259.7580314,-1.953125,-38.57421875,-38.0859375,-133.30078125
1769484259.7619376,-23.92578125,-37.59765625,-31.25,-127.44140625
1769484259.7658439,-42.48046875,-41.9921875,-23.4375,-140.625
1769484259.76975,-40.52734375,-56.640625,-33.203125,-171.875
1769484259.7736564,-44.43359375,-59.08203125,-39.55078125,-176.26953125
1769484259.7775626,-46.38671875,-50.29296875,-35.64453125,-157.2265625
1769484259.7814689,-58.10546875,-55.17578125,-34.66796875,-159.66796875
1769484259.785375,-38.57421875,-59.08203125,-34.66796875,-143.5546875
1769484259.7892814,-23.4375,-49.31640625,-39.55078125,-135.25390625
1769484259.7931876,-42.48046875,-49.8046875,-43.45703125,-170.41015625
1769484259.7970939,-69.82421875,-50.78125,-40.52734375,-178.7109375
1769484259.827125,-61.5234375,-49.8046875,-41.50390625,-165.0390625
1769484259.8310313,-25.390625,-45.41015625,-41.015625,-134.27734375
1769484259.8349376,-13.18359375,-40.52734375,-41.015625,-124.51171875
1769484259.8388438,-43.9453125,-40.0390625,-40.52734375,-149.4140625
1769484259.84275,-59.08203125,-31.25,-42.48046875,-151.85546875
1769484259.8466563,-20.99609375,-29.296875,-45.41015625,-144.53125
1769484259.8505626,-0.9765625,-26.3671875,-45.41015625,-141.11328125
1769484259.8544688,-18.06640625,-28.80859375,-41.015625,-150.390625
1769484259.858375,-41.015625,-34.1796875,-37.109375,-162.59765625
1769484259.8622813,-37.109375,-31.25,-41.9921875,-151.85546875
1769484259.8661876,-12.6953125,-34.1796875,-41.015625,-150.87890625
1769484259.8700938,-21.97265625,-40.52734375,-39.0625,-159.66796875
1769484259.844125,-42.48046875,-40.0390625,-45.8984375,-159.66796875
1769484259.8480313,-40.0390625,-32.71484375,-44.921875,-147.4609375
1769484259.8519375,-22.4609375,-29.78515625,-43.45703125,-130.37109375
1769484259.8558438,-14.16015625,-24.90234375,-45.8984375,-104.4921875
1769484259.85975,-32.2265625,-22.94921875,-48.828125,-90.33203125
1769484259.8636563,-48.33984375,-36.62109375,-45.8984375,-86.42578125
1769484259.8675625,-35.64453125,-34.66796875,-45.8984375,-87.890625
1769484259.8714688,-11.23046875,-30.76171875,-49.8046875,-91.30859375
1769484259.875375,-27.34375,-30.2734375,-45.41015625,-58.59375
1769484259.8792813,-52.24609375,-28.3203125,-41.015625,-22.4609375
1769484259.8831875,-34.66796875,-35.15625,-46.38671875,29.296875
1769484259.8870938,-17.08984375,-43.9453125,-42.96875,68.84765625
1769484259.890125,-38.0859375,-41.50390625,-35.15625,71.2890625
1769484259.8940313,-49.31640625,-39.55078125,-38.57421875,63.4765625
1769484259.8979375,-44.921875,-44.43359375,-40.52734375,83.984375
1769484259.9018438,-36.1328125,-43.9453125,-41.9921875,106.4453125
1769484259.90575,-28.80859375,-42.96875,-44.43359375,98.14453125
1769484259.9096563,-55.6640625,-39.55078125,-47.8515625,71.77734375
1769484259.9135625,-55.17578125,-40.52734375,-49.8046875,66.89453125
1769484259.9174688,-26.85546875,-37.109375,-46.875,89.84375
1769484259.921375,-25.87890625,-29.296875,-49.31640625,74.21875
1769484259.9252813,-34.66796875,-34.1796875,-49.31640625,53.7109375
1769484259.9291875,-41.015625,-36.1328125,-45.41015625,59.5703125
1769484259.9330938,-27.83203125,-30.76171875,-45.8984375,58.10546875
1769484259.949125,-5.37109375,-26.3671875,-44.43359375,59.5703125
1769484259.9530313,-28.3203125,-32.71484375,-43.9453125,39.0625
1769484259.9569376,-45.8984375,-38.0859375,-42.96875,-3.90625
1769484259.9608438,-29.78515625,-40.0390625,-45.41015625,11.71875
1769484259.96475,-16.11328125,-38.0859375,-42.48046875,46.875
1769484259.9686563,-25.390625,-32.71484375,-38.57421875,34.1796875
1769484259.9725626,-56.15234375,-32.2265625,-39.0625,5.859375
1769484259.9764688,-56.15234375,-32.2265625,-39.55078125,37.109375
1769484259.980375,-32.2265625,-34.66796875,-44.921875,61.5234375
1769484259.9842813,-16.6015625,-45.41015625,-41.015625,55.17578125
1769484259.9881876,-36.62109375,-42.96875,-39.55078125,47.8515625
1769484259.9920938,-36.62109375,-33.203125,-37.109375,43.45703125
1769484259.979125,-19.53125,-28.80859375,-33.69140625,64.453125
1769484259.9830313,-9.27734375,-37.59765625,-41.015625,66.89453125
1769484259.9869375,-33.69140625,-43.45703125,-41.50390625,23.4375
1769484259.9908438,-58.10546875,-40.0390625,-36.1328125,25.87890625
1769484259.99475,-18.5546875,-37.59765625,-35.15625,69.82421875
1769484259.9986563,-8.7890625,-41.9921875,-39.0625,68.84765625
1769484260.0025625,-39.0625,-42.96875,-39.55078125,45.8984375
1769484260.0064688,-52.734375,-37.59765625,-39.0625,36.1328125
1769484260.010375,-24.90234375,-38.0859375,-38.57421875,52.24609375
1769484260.0142813,5.859375,-36.62109375,-35.64453125,63.96484375
1769484260.0181875,-7.32421875,-39.55078125,-33.203125,42.48046875
1769484260.0220938,-39.55078125,-34.1796875,-34.1796875,21.97265625
1769484260.040125,-43.9453125,-32.2265625,-35.15625,36.62109375
1769484260.0440311,-6.34765625,-28.3203125,-33.69140625,51.26953125
1769484260.0479374,-8.30078125,-20.99609375,-32.2265625,41.015625
1769484260.0518436,-31.25,-22.94921875,-36.62109375,5.859375
1769484260.05575,-28.3203125,-20.99609375,-39.55078125,3.90625
1769484260.0596561,-11.71875,-20.01953125,-39.0625,35.64453125
1769484260.0635624,-4.39453125,-18.06640625,-39.0625,44.43359375
1769484260.0674686,-25.390625,-17.08984375,-36.1328125,28.3203125
1769484260.071375,-26.85546875,-20.01953125,-38.57421875,31.73828125
1769484260.0752811,-21.484375,-19.04296875,-37.59765625,43.45703125
1769484260.0791874,-23.4375,-19.04296875,-36.62109375,46.875
1769484260.0830936,-32.71484375,-23.92578125,-41.015625,35.15625
1769484260.085125,-50.78125,-28.80859375,-41.50390625,26.3671875
1769484260.0890312,-34.66796875,-29.78515625,-36.62109375,36.1328125
1769484260.0929375,-10.7421875,-30.2734375,-41.015625,18.06640625
1769484260.0968437,-38.0859375,-32.71484375,-42.96875,-25.87890625
1769484260.10075,-76.66015625,-36.1328125,-38.0859375,-70.3125
1769484260.1046562,-52.734375,-38.57421875,-38.0859375,-124.51171875
1769484260.1085625,-20.99609375,-28.3203125,-38.57421875,-125.0
1769484260.1124687,-31.73828125,-28.80859375,-41.50390625,-112.3046875
1769484260.116375,-45.8984375,-34.66796875,-41.015625,-139.16015625
1769484260.1202812,-50.29296875,-31.73828125,-37.59765625,-163.0859375
1769484260.1241875,-36.1328125,-28.80859375,-40.52734375,-155.76171875
1769484260.1280937,-15.13671875,-30.76171875,-40.52734375,-145.99609375
1769484260.129125,-27.83203125,-34.1796875,-40.52734375,-167.96875
1769484260.1330314,-39.0625,-29.296875,-35.64453125,-177.24609375
1769484260.1369376,-27.34375,-26.85546875,-27.34375,-158.203125
1769484260.1408439,-36.1328125,-37.109375,-28.80859375,-141.6015625
1769484260.14475,-43.9453125,-35.15625,-34.1796875,-142.578125
1769484260.1486564,-48.828125,-33.69140625,-34.66796875,-163.0859375
1769484260.1525626,-42.48046875,-35.64453125,-38.0859375,-178.22265625
1769484260.1564689,-13.18359375,-28.80859375,-40.0390625,-153.80859375
1769484260.160375,-20.5078125,-31.73828125,-41.9921875,-150.390625
1769484260.1642814,-59.08203125,-35.64453125,-45.8984375,-186.03515625
1769484260.1681876,-62.98828125,-35.15625,-44.921875,-189.94140625
1769484260.1720939,-36.1328125,-36.62109375,-39.55078125,-165.0390625
1769484260.175125,-34.1796875,-36.1328125,-44.43359375,-174.31640625
1769484260.1790311,-61.03515625,-35.15625,-50.78125,-196.77734375
1769484260.1829374,-52.24609375,-38.0859375,-58.59375,-194.3359375
1769484260.1868436,-34.66796875,-36.62109375,-62.01171875,-172.36328125
1769484260.19075,-31.25,-30.76171875,-54.19921875,-152.34375
1769484260.1946561,-39.0625,-32.71484375,-52.734375,-157.71484375
1769484260.1985624,-56.640625,-37.109375,-53.7109375,-176.7578125
1769484260.2024686,-32.2265625,-36.62109375,-52.24609375,-161.1328125
1769484260.206375,-8.30078125,-30.2734375,-51.7578125,-145.99609375
1769484260.2102811,-11.71875,-28.80859375,-54.6875,-154.78515625
1769484260.2141874,-37.59765625,-33.203125,-55.17578125,-166.015625
1769484260.2180936,-36.1328125,-33.203125,-55.6640625,-152.83203125
1769484260.219125,-10.7421875,-35.64453125,-55.17578125,-125.9765625
1769484260.2230313,-27.83203125,-37.109375,-48.33984375,-133.7890625
1769484260.2269375,-59.08203125,-37.59765625,-45.41015625,-153.3203125
1769484260.2308438,-56.15234375,-40.0390625,-52.734375,-154.78515625
1769484260.23475,-38.0859375,-36.62109375,-56.15234375,-134.765625
1769484260.2386563,-23.92578125,-31.25,-55.17578125,-124.0234375
1769484260.2425625,-34.66796875,-35.15625,-55.17578125,-131.8359375
1769484260.2464688,-49.31640625,-35.64453125,-53.22265625,-109.375
1769484260.250375,-32.71484375,-29.78515625,-51.26953125,-66.89453125
1769484260.2542813,-24.90234375,-28.3203125,-52.24609375,-56.15234375
1769484260.2581875,-26.85546875,-31.25,-50.29296875,-62.98828125
1769484260.2620938,-44.43359375,-42.96875,-49.8046875,-31.73828125
1769484260.264125,-40.52734375,-41.50390625,-52.24609375,40.52734375
1769484260.2680314,-5.37109375,-38.0859375,-47.8515625,76.171875
1769484260.2719376,-5.37109375,-48.828125,-44.921875,28.80859375
1769484260.2758439,-36.1328125,-48.33984375,-52.24609375,-34.66796875
1769484260.27975,-31.73828125,-42.48046875,-47.36328125,-44.43359375
1769484260.2836564,-2.9296875,-39.0625,-41.50390625,6.34765625
1769484260.2875626,-12.6953125,-40.52734375,-40.52734375,34.1796875
1769484260.2914689,-32.2265625,-43.9453125,-42.96875,34.66796875
1769484260.295375,-31.25,-36.62109375,-44.921875,50.29296875
1769484260.2992814,-20.5078125,-36.62109375,-44.43359375,74.70703125
1769484260.3031876,-5.37109375,-38.57421875,-48.33984375,83.49609375
1769484260.3070939,-19.04296875,-30.76171875,-47.8515625,58.59375
1769484260.309125,-27.34375,-26.85546875,-47.8515625,52.734375
1769484260.3130312,-9.27734375,-28.80859375,-48.828125,51.7578125
1769484260.3169374,0.48828125,-23.92578125,-47.36328125,46.875
1769484260.3208437,-15.13671875,-24.90234375,-45.41015625,39.55078125
1769484260.32475,-29.78515625,-32.71484375,-45.41015625,6.8359375
1769484260.3286562,-11.71875,-28.3203125,-45.41015625,4.39453125
1769484260.3325624,5.859375,-20.99609375,-41.9921875,18.06640625
1769484260.3364687,3.90625,-21.484375,-41.50390625,0.48828125
1769484260.340375,-14.16015625,-19.53125,-44.921875,-35.64453125
1769484260.3442812,-9.27734375,-20.99609375,-52.734375,-52.24609375
1769484260.3481874,15.13671875,-20.01953125,-62.5,-20.01953125
1769484260.3520937,-16.11328125,-24.4140625,-65.91796875,14.16015625
1769484260.354125,-40.52734375,-31.25,-64.453125,26.85546875
1769484260.3580313,-24.90234375,-28.3203125,-57.12890625,42.96875
1769484260.3619375,-7.8125,-31.25,-51.26953125,70.80078125
1769484260.3658438,-0.9765625,-32.2265625,-51.26953125,24.4140625
1769484260.36975,-12.6953125,-31.73828125,-51.7578125,-55.17578125
1769484260.3736563,-23.92578125,-34.1796875,-50.29296875,-85.44921875
1769484260.3775625,-13.18359375,-28.80859375,-48.33984375,-80.56640625
1769484260.3814688,18.5546875,-24.90234375,-52.734375,-73.73046875
1769484260.385375,7.8125,-22.4609375,-54.19921875,-75.1953125
1769484260.3892813,-18.5546875,-20.5078125,-46.38671875,-75.68359375
1769484260.3931875,2.44140625,-26.3671875,-47.36328125,-76.66015625
1769484260.3970938,13.671875,-23.4375,-53.7109375,-75.1953125
1769484260.429125,0.9765625,-21.97265625,-57.6171875,-84.9609375
1769484260.4330313,-19.53125,-26.85546875,-53.7109375,-108.88671875
1769484260.4369376,-20.01953125,-22.4609375,-49.8046875,-115.72265625
1769484260.4408438,16.6015625,-20.99609375,-49.31640625,-104.98046875
1769484260.44475,1.46484375,-28.3203125,-45.8984375,-96.19140625
1769484260.4486563,-33.69140625,-20.01953125,-47.36328125,-121.58203125
1769484260.4525626,-44.43359375,-19.53125,-47.8515625,-146.97265625
1769484260.4564688,-21.484375,-19.53125,-45.8984375,-129.39453125
1769484260.460375,-1.46484375,-17.08984375,-52.24609375,-103.515625
1769484260.4642813,-26.3671875,-20.5078125,-58.10546875,-85.44921875
1769484260.4681876,-44.921875,-21.97265625,-52.24609375,-78.61328125
1769484260.4720938,-20.5078125,-24.90234375,-51.26953125,-56.15234375
1769484260.448125,-5.37109375,-25.87890625,-48.33984375,-14.6484375
1769484260.4520311,-37.59765625,-27.83203125,-49.31640625,-20.99609375
1769484260.4559374,-48.33984375,-26.3671875,-47.36328125,-28.80859375
1769484260.4598436,-30.2734375,-25.390625,-47.36328125,-6.8359375
1769484260.46375,-18.06640625,-29.296875,-48.33984375,21.97265625
1769484260.4676561,-29.296875,-32.2265625,-46.38671875,26.3671875
1769484260.4715624,-40.52734375,-28.80859375,-47.8515625,12.6953125
1769484260.4754686,-35.15625,-22.4609375,-42.48046875,17.578125
1769484260.479375,-23.4375,-22.94921875,-46.38671875,29.296875
1769484260.4832811,-22.4609375,-25.87890625,-49.8046875,40.0390625
1769484260.4871874,-45.8984375,-28.3203125,-46.38671875,39.0625
1769484260.4910936,-46.875,-24.90234375,-46.38671875,36.1328125
1769484260.504125,-29.296875,-18.06640625,-45.8984375,51.7578125
1769484260.5080314,-0.48828125,-23.4375,-43.45703125,61.5234375
1769484260.5119376,-16.6015625,-28.3203125,-37.59765625,48.33984375
1769484260.5158439,-38.0859375,-27.34375,-38.57421875,22.94921875
1769484260.51975,-24.4140625,-25.87890625,-40.52734375,22.4609375
1769484260.5236564,-25.87890625,-30.76171875,-33.203125,28.80859375
1769484260.5275626,-40.0390625,-30.2734375,-33.69140625,7.8125
1769484260.5314689,-56.15234375,-26.85546875,-37.59765625,-20.99609375
1769484260.535375,-50.78125,-24.4140625,-41.9921875,-30.76171875
1769484260.5392814,-32.2265625,-20.01953125,-40.0390625,-3.90625
1769484260.5431876,-9.765625,-24.4140625,-35.64453125,-6.8359375
1769484260.5470939,-33.69140625,-24.90234375,-35.64453125,-32.71484375
1769484260.550125,-58.59375,-21.97265625,-37.109375,-11.23046875
1769484260.5540311,-24.90234375,-23.92578125,-41.9921875,18.5546875
1769484260.5579374,-15.13671875,-29.296875,-42.48046875,13.18359375
1769484260.5618436,-39.0625,-36.62109375,-41.50390625,0.9765625
1769484260.56575,-55.6640625,-38.57421875,-44.43359375,7.8125
1769484260.5696561,-41.50390625,-39.0625,-41.9921875,24.90234375
1769484260.5735624,-19.04296875,-37.109375,-38.57421875,30.76171875
1769484260.5774686,-16.6015625,-35.15625,-40.52734375,13.671875
1769484260.581375,-41.50390625,-40.52734375,-38.57421875,1.46484375
1769484260.5852811,-41.9921875,-38.0859375,-37.109375,2.9296875
1769484260.5891874,-4.8828125,-36.1328125,-42.96875,-3.90625
1769484260.5930936,-11.71875,-41.50390625,-45.8984375,-19.04296875
1769484260.594125,-54.19921875,-49.31640625,-48.33984375,-27.83203125
1769484260.5980313,-53.22265625,-47.8515625,-54.6875,-33.203125
1769484260.6019375,-23.92578125,-43.9453125,-56.640625,-23.4375
1769484260.6058438,-33.69140625,-57.6171875,-55.17578125,-23.92578125
1769484260.60975,-57.12890625,-57.6171875,-50.29296875,-48.33984375
1769484260.6136563,-58.10546875,-42.96875,-50.29296875,-48.828125
1769484260.6175625,-37.109375,-41.9921875,-57.12890625,-36.1328125
1769484260.6214688,-14.16015625,-40.52734375,-49.8046875,-20.99609375
1769484260.625375,-47.8515625,-37.109375,-44.43359375,-58.10546875
1769484260.6292813,-59.08203125,-32.71484375,-48.33984375,-104.98046875
1769484260.6331875,-43.9453125,-30.76171875,-41.9921875,-124.51171875
1769484260.6370938,-27.83203125,-36.1328125,-41.015625,-139.6484375
1769484260.640125,-41.015625,-39.0625,-47.36328125,-149.4140625
1769484260.6440313,-62.5,-33.203125,-47.36328125,-167.48046875
1769484260.6479375,-48.828125,-33.69140625,-50.78125,-161.1328125
1769484260.6518438,-15.625,-35.15625,-54.19921875,-161.62109375
1769484260.65575,-21.484375,-33.69140625,-53.22265625,-203.125
1769484260.6596563,-73.2421875,-40.0390625,-52.734375,-225.5859375
1769484260.6635625,-71.77734375,-39.0625,-49.8046875,-177.734375
1769484260.6674688,-34.1796875,-32.71484375,-47.8515625,-119.62890625
1769484260.671375,-23.92578125,-32.2265625,-45.8984375,-94.23828125
1769484260.6752813,-54.19921875,-33.203125,-42.48046875,-83.49609375
1769484260.6791875,-60.05859375,-35.64453125,-44.921875,-70.3125
1769484260.6830938,-25.390625,-34.1796875,-48.828125,-35.64453125
1769484260.685125,-6.8359375,-32.71484375,-42.96875,-4.39453125
1769484260.6890314,-29.78515625,-37.109375,-43.45703125,-11.23046875
1769484260.6929376,-56.640625,-41.015625,-52.734375,-55.17578125
1769484260.6968439,-49.31640625,-38.57421875,-49.8046875,-68.359375
1769484260.70075,-23.92578125,-43.45703125,-45.8984375,-66.40625
1769484260.7046564,-28.3203125,-47.8515625,-52.24609375,-91.30859375
1769484260.7085626,-60.05859375,-45.41015625,-53.22265625,-104.98046875
1769484260.7124689,-64.453125,-41.015625,-49.31640625,-87.40234375
1769484260.716375,-33.203125,-44.43359375,-50.29296875,-83.49609375
1769484260.7202814,-21.484375,-42.48046875,-46.875,-105.46875
1769484260.7241876,-71.2890625,-38.57421875,-49.8046875,-125.0
1769484260.7280939,-60.05859375,-40.52734375,-54.19921875,-143.5546875
1769484260.730125,-27.83203125,-39.55078125,-49.8046875,-143.06640625
1769484260.7340312,-25.390625,-46.875,-50.29296875,-161.62109375
1769484260.7379375,-39.0625,-42.96875,-50.78125,-187.01171875
1769484260.7418437,-42.48046875,-39.0625,-49.8046875,-184.08203125
1769484260.74575,-12.6953125,-41.50390625,-50.29296875,-177.24609375
1769484260.7496562,-1.46484375,-38.57421875,-47.36328125,-151.85546875
1769484260.7535625,-20.5078125,-41.015625,-49.8046875,-160.64453125
1769484260.7574687,-36.1328125,-38.0859375,-52.24609375,-197.265625
1769484260.761375,-17.08984375,-32.2265625,-51.26953125,-166.9921875
1769484260.7652812,-4.39453125,-32.71484375,-48.828125,-122.55859375
1769484260.7691875,-21.97265625,-33.203125,-44.43359375,-134.27734375
1769484260.7730937,-44.921875,-34.66796875,-42.48046875,-146.97265625
1769484260.789125,-48.33984375,-32.2265625,-41.015625,-106.93359375
1769484260.7930312,-15.625,-38.57421875,-43.45703125,-51.26953125
1769484260.7969375,-15.13671875,-40.0390625,-44.921875,-37.109375
1769484260.8008437,-50.29296875,-38.57421875,-41.50390625,-45.41015625
1769484260.80475,-38.57421875,-42.48046875,-47.36328125,-62.01171875
1769484260.8086562,-14.6484375,-42.96875,-56.15234375,-71.77734375
1769484260.8125625,-32.71484375,-38.0859375,-57.12890625,-72.265625
1769484260.8164687,-62.5,-39.0625,-56.640625,-75.1953125
1769484260.820375,-54.19921875,-46.38671875,-47.8515625,-44.921875
1769484260.8242812,-22.94921875,-42.48046875,-32.71484375,-1.953125
1769484260.8281875,-15.625,-38.57421875,-28.3203125,6.8359375
1769484260.8320937,-37.109375,-39.0625,-29.78515625,-18.5546875
1769484260.834125,-52.24609375,-41.9921875,-30.2734375,-20.99609375
1769484260.8380313,-27.83203125,-40.52734375,-38.0859375,9.765625
1769484260.8419375,-3.90625,-39.55078125,-43.9453125,32.71484375
1769484260.8458438,-25.390625,-38.0859375,-42.96875,37.109375
1769484260.84975,-52.734375,-31.25,-38.57421875,10.25390625
1769484260.8536563,-45.41015625,-23.4375,-38.0859375,-41.9921875
1769484260.8575625,-12.6953125,-28.80859375,-39.0625,-49.31640625
1769484260.8614688,-10.7421875,-35.15625,-39.55078125,-37.59765625
1769484260.865375,-44.43359375,-36.62109375,-43.45703125,-73.2421875
1769484260.8692813,-58.10546875,-35.15625,-42.48046875,-110.3515625
1769484260.8731875,-38.0859375,-31.73828125,-38.57421875,-100.5859375
1769484260.8770938,-23.92578125,-31.73828125,-41.9921875,-85.9375
1769484260.879125,-43.9453125,-37.59765625,-43.9453125,-104.00390625
1769484260.8830314,-62.5,-36.62109375,-46.38671875,-122.55859375
1769484260.8869376,-49.31640625,-33.69140625,-47.8515625,-112.79296875
1769484260.8908439,-22.4609375,-41.9921875,-44.43359375,-100.09765625
1769484260.89475,-24.90234375,-45.8984375,-40.52734375,-102.05078125
1769484260.8986564,-62.98828125,-36.62109375,-37.59765625,-120.1171875
1769484260.9025626,-62.01171875,-31.25,-36.1328125,-115.72265625
1769484260.9064689,-19.04296875,-40.0390625,-38.57421875,-104.00390625
1769484260.910375,-19.04296875,-48.33984375,-41.9921875,-110.3515625
1769484260.9142814,-56.15234375,-43.9453125,-43.9453125,-131.8359375
1769484260.9181876,-54.6875,-41.015625,-41.015625,-134.765625
1769484260.9220939,-21.97265625,-43.9453125,-34.1796875,-98.6328125
1769484260.925125,-18.5546875,-44.921875,-29.78515625,-69.3359375
1769484260.9290311,-39.55078125,-39.0625,-28.3203125,-46.875
1769484260.9329374,-58.10546875,-37.109375,-33.203125,-27.34375
1769484260.9368436,-45.8984375,-47.36328125,-36.1328125,0.9765625
1769484260.94075,-22.94921875,-47.36328125,-38.57421875,30.76171875
1769484260.9446561,-27.34375,-41.015625,-40.0390625,-0.48828125
1769484260.9485624,-39.0625,-42.96875,-42.96875,-16.6015625
1769484260.9524686,-25.390625,-44.43359375,-45.41015625,14.16015625
1769484260.956375,-13.671875,-40.52734375,-42.96875,32.2265625
1769484260.9602811,-31.25,-37.109375,-42.96875,29.296875
1769484260.9641874,-43.9453125,-35.15625,-41.9921875,27.83203125
1769484260.9680936,-31.73828125,-33.203125,-36.62109375,31.73828125
1769484260.969125,-11.23046875,-33.69140625,-37.59765625,45.41015625
1769484260.9730313,-20.99609375,-36.1328125,-43.9453125,24.90234375
1769484260.9769375,-47.8515625,-34.66796875,-41.015625,-61.5234375
1769484260.9808438,-49.8046875,-34.66796875,-33.69140625,-106.93359375
1769484260.98475,-31.25,-44.921875,-34.1796875,-71.2890625
1769484260.9886563,-36.1328125,-51.7578125,-38.0859375,-78.61328125
1769484260.9925625,-51.26953125,-49.31640625,-37.109375,-119.62890625
1769484260.9964688,-51.7578125,-49.8046875,-37.59765625,-136.23046875
1769484261.000375,-44.921875,-45.8984375,-35.15625,-128.90625
1769484261.0042813,-14.16015625,-39.0625,-36.1328125,-115.72265625
1769484261.0081875,-27.34375,-41.015625,-46.875,-145.01953125
1769484261.0120938,-61.5234375,-42.48046875,-52.24609375,-170.8984375
1769484261.029125,-38.0859375,-36.1328125,-41.50390625,-147.94921875
1769484261.0330312,-14.6484375,-35.64453125,-30.76171875,-118.65234375
1769484261.0369375,-22.4609375,-43.9453125,-36.1328125,-91.796875
1769484261.0408437,-43.9453125,-45.41015625,-42.48046875,-66.89453125
1769484261.04475,-45.8984375,-40.0390625,-39.0625,-31.73828125
1769484261.0486562,-23.92578125,-39.55078125,-34.1796875,6.8359375
1769484261.0525625,-22.94921875,-43.45703125,-32.71484375,7.8125
1769484261.0564687,-47.36328125,-45.8984375,-37.109375,-38.0859375
1769484261.060375,-50.29296875,-32.71484375,-41.50390625,-92.7734375
1769484261.0642812,-15.13671875,-29.296875,-37.59765625,-92.28515625
1769484261.0681875,-11.23046875,-42.96875,-37.109375,-78.61328125
1769484261.0720937,-40.52734375,-41.50390625,-37.109375,-106.93359375
1769484261.059125,-43.9453125,-34.66796875,-37.109375,-132.32421875
1769484261.0630312,-13.671875,-31.25,-40.0390625,-117.67578125
1769484261.0669374,8.7890625,-29.296875,-34.66796875,-100.5859375
1769484261.0708437,-36.1328125,-28.3203125,-32.2265625,-118.65234375
1769484261.07475,-78.125,-30.76171875,-37.59765625,-140.13671875
1769484261.0786562,-62.01171875,-40.52734375,-38.57421875,-132.8125
1769484261.0825624,-37.109375,-41.015625,-34.66796875,-99.609375
1769484261.0864687,-41.50390625,-40.52734375,-37.59765625,-70.3125
1769484261.090375,-71.2890625,-42.48046875,-41.015625,-55.6640625
1769484261.0942812,-54.19921875,-37.109375,-37.109375,-26.3671875
1769484261.0981874,-22.94921875,-43.9453125,-39.0625,13.671875
1769484261.1020937,-37.109375,-44.43359375,-41.50390625,31.73828125
1769484261.119125,-62.98828125,-37.109375,-42.48046875,-12.20703125
1769484261.1230311,-63.4765625,-36.62109375,-44.921875,-65.4296875
1769484261.1269374,-41.9921875,-35.15625,-40.52734375,-67.87109375
1769484261.1308436,-30.76171875,-31.73828125,-41.50390625,-45.8984375
1769484261.13475,-36.62109375,-31.73828125,-40.0390625,-43.45703125
1769484261.1386561,-55.6640625,-38.57421875,-39.0625,-42.96875
1769484261.1425624,-43.45703125,-41.9921875,-42.48046875,-11.71875
1769484261.1464686,-16.6015625,-33.203125,-43.45703125,15.625
1769484261.150375,-41.015625,-38.0859375,-45.8984375,18.5546875
1769484261.1542811,-55.6640625,-41.9921875,-45.8984375,6.34765625
1769484261.1581874,-46.38671875,-36.1328125,-47.8515625,10.25390625
1769484261.1620936,-42.96875,-37.59765625,-51.7578125,22.4609375
1769484261.151125,-34.66796875,-47.36328125,-52.734375,8.7890625
1769484261.1550312,-40.0390625,-46.38671875,-51.26953125,-25.390625
1769484261.1589375,-46.38671875,-36.62109375,-49.8046875,-63.96484375
1769484261.1628437,-22.4609375,-36.62109375,-47.8515625,-61.03515625
1769484261.16675,3.41796875,-35.15625,-47.8515625,-66.40625
1769484261.1706562,-30.76171875,-34.66796875,-55.17578125,-116.69921875
1769484261.1745625,-79.1015625,-35.64453125,-48.33984375,-130.37109375
1769484261.1784687,-41.015625,-29.78515625,-41.50390625,-115.72265625
1769484261.182375,-12.6953125,-26.3671875,-50.29296875,-112.3046875
1769484261.1862812,-38.57421875,-31.73828125,-48.33984375,-125.48828125
1769484261.1901875,-48.828125,-31.25,-40.52734375,-133.7890625
1769484261.1940937,-30.2734375,-28.3203125,-37.59765625,-106.93359375
1769484261.209125,-2.44140625,-26.85546875,-29.296875,-65.4296875
1769484261.2130313,-1.46484375,-21.484375,-30.2734375,-59.5703125
1769484261.2169375,-39.0625,-19.53125,-37.59765625,-72.265625
1769484261.2208438,-33.69140625,-25.87890625,-38.0859375,-38.57421875
1769484261.22475,-14.6484375,-31.73828125,-36.62109375,2.44140625
1769484261.2286563,-39.0625,-35.15625,-39.55078125,-7.8125
1769484261.2325625,-54.6875,-35.15625,-43.9453125,-21.97265625
1769484261.2364688,-38.57421875,-31.25,-45.41015625,-9.27734375
1769484261.240375,-20.01953125,-37.59765625,-42.96875,10.25390625
1769484261.2442813,-28.3203125,-41.50390625,-40.52734375,25.87890625
1769484261.2481875,-45.41015625,-35.15625,-36.62109375,30.76171875
1769484261.2520938,-51.7578125,-39.0625,-33.203125,33.69140625
1769484261.254125,-21.97265625,-41.015625,-36.1328125,41.015625
1769484261.2580314,-22.94921875,-37.109375,-39.55078125,49.31640625
1769484261.2619376,-54.19921875,-32.71484375,-41.015625,36.62109375
1769484261.2658439,-64.453125,-34.1796875,-38.0859375,25.390625
1769484261.26975,-53.22265625,-31.25,-34.66796875,42.96875
1769484261.2736564,-43.45703125,-26.85546875,-34.66796875,60.05859375
1769484261.2775626,-61.03515625,-35.15625,-37.59765625,49.8046875
1769484261.2814689,-70.80078125,-38.57421875,-36.1328125,30.76171875
1769484261.285375,-64.94140625,-34.1796875,-27.34375,41.9921875
1769484261.2892814,-54.6875,-37.109375,-25.390625,58.10546875
1769484261.2931876,-57.12890625,-36.62109375,-32.2265625,40.0390625
1769484261.2970939,-66.40625,-37.109375,-30.2734375,-16.11328125
1769484261.299125,-72.265625,-39.55078125,-29.296875,-68.359375
1769484261.3030312,-59.08203125,-35.64453125,-33.203125,-77.1484375
1769484261.3069375,-50.29296875,-32.2265625,-34.66796875,-109.86328125
1769484261.3108437,-67.3828125,-38.0859375,-38.0859375,-170.41015625
1769484261.31475,-84.9609375,-42.48046875,-40.0390625,-187.98828125
1769484261.3186562,-62.5,-33.69140625,-40.0390625,-176.26953125
1769484261.3225625,-41.015625,-28.3203125,-35.64453125,-167.96875
1769484261.3264687,-50.29296875,-31.25,-29.296875,-166.9921875
1769484261.330375,-54.19921875,-35.64453125,-27.83203125,-168.9453125
1769484261.3342812,-62.5,-36.1328125,-37.109375,-159.1796875
1769484261.3381875,-44.43359375,-36.1328125,-40.52734375,-131.34765625
1769484261.3420937,-42.48046875,-43.45703125,-37.109375,-129.8828125
1769484261.344125,-67.3828125,-38.57421875,-38.0859375,-148.92578125
1769484261.3480313,-56.640625,-26.3671875,-36.62109375,-139.16015625
1769484261.3519375,-41.50390625,-28.3203125,-32.71484375,-120.1171875
1769484261.3558438,-38.57421875,-31.25,-34.66796875,-113.28125
1769484261.35975,-47.8515625,-40.0390625,-40.0390625,-106.4453125
1769484261.3636563,-66.40625,-46.38671875,-38.57421875,-112.79296875
1769484261.3675625,-50.29296875,-38.0859375,-30.2734375,-109.375
1769484261.3714688,-16.6015625,-36.1328125,-34.66796875,-110.83984375
1769484261.375375,-39.0625,-33.203125,-41.50390625,-133.30078125
1769484261.3792813,-68.84765625,-35.15625,-37.109375,-131.8359375
1769484261.3831875,-46.875,-41.50390625,-38.57421875,-109.86328125
1769484261.3870938,-30.76171875,-44.921875,-41.50390625,-89.84375
1769484261.389125,-41.015625,-41.9921875,-44.43359375,-94.7265625
1769484261.3930314,-43.9453125,-41.9921875,-40.0390625,-118.1640625
1769484261.3969376,-40.52734375,-37.109375,-36.62109375,-114.74609375
1769484261.4008439,-27.34375,-33.203125,-44.43359375,-78.61328125
1769484261.40475,-23.4375,-40.52734375,-37.109375,-56.640625
1769484261.4086564,-52.24609375,-41.50390625,-39.0625,-74.70703125
1769484261.4125626,-51.7578125,-33.203125,-46.38671875,-86.42578125
1769484261.4164689,-28.80859375,-37.109375,-43.45703125,-58.10546875
1769484261.420375,-25.390625,-39.55078125,-43.45703125,-46.38671875
1769484261.4242814,-41.015625,-36.1328125,-37.109375,-62.01171875
1769484261.4281876,-51.26953125,-41.50390625,-33.203125,-73.73046875
1769484261.4320939,-24.4140625,-41.50390625,-37.109375,-67.3828125
1769484261.435125,-15.13671875,-41.50390625,-45.8984375,-68.84765625
1769484261.4390314,-34.1796875,-44.921875,-48.33984375,-79.1015625
1769484261.4429376,-43.45703125,-43.9453125,-41.015625,-73.73046875
1769484261.4468439,-28.80859375,-42.96875,-40.0390625,-47.36328125
1769484261.45075,-25.87890625,-39.0625,-44.43359375,-32.71484375
1769484261.4546564,-35.64453125,-38.57421875,-41.9921875,-29.78515625
1769484261.4585626,-55.17578125,-48.828125,-37.109375,-47.8515625
1769484261.4624689,-51.26953125,-47.8515625,-46.38671875,-66.40625
1769484261.466375,-21.484375,-40.0390625,-51.7578125,-42.48046875
1769484261.4702814,-46.38671875,-46.875,-44.921875,-49.8046875
1769484261.4741876,-83.0078125,-48.33984375,-41.50390625,-80.56640625
1769484261.4780939,-62.01171875,-36.62109375,-40.0390625,-95.703125
1769484261.479125,-38.57421875,-41.015625,-42.96875,-93.75
1769484261.4830313,-52.24609375,-47.36328125,-43.9453125,-122.0703125
1769484261.4869375,-53.22265625,-41.50390625,-45.8984375,-125.48828125
1769484261.4908438,-59.5703125,-48.828125,-50.29296875,-85.44921875
1769484261.49475,-45.41015625,-43.9453125,-46.38671875,-49.8046875
1769484261.4986563,-41.015625,-42.96875,-39.0625,-42.48046875
1769484261.5025625,-74.21875,-51.7578125,-42.48046875,-73.73046875
1769484261.5064688,-94.7265625,-35.64453125,-47.36328125,-83.49609375
1769484261.510375,-87.890625,-47.36328125,-41.015625,-99.12109375
1769484261.5142813,-62.98828125,-49.31640625,-47.8515625,-135.7421875
1769484261.5181875,-82.03125,-31.25,-50.29296875,-187.5
1769484261.5220938,-108.88671875,-30.76171875,-43.45703125,-228.515625
1769484261.539125,-87.890625,-31.25,-40.52734375,-225.5859375
1769484261.5430312,-66.40625,-41.015625,-37.109375,-221.19140625
1769484261.5469375,-78.125,-43.9453125,-41.50390625,-230.95703125
1769484261.5508437,-115.234375,-35.64453125,-44.921875,-246.58203125
1769484261.55475,-123.53515625,-31.25,-44.921875,-252.44140625
1769484261.5586562,-104.00390625,-32.2265625,-48.33984375,-219.23828125
1769484261.5625625,-99.609375,-30.76171875,-51.26953125,-167.48046875
1769484261.5664687,-121.09375,-32.2265625,-53.7109375,-129.39453125
1769484261.570375,-137.6953125,-33.203125,-55.6640625,-119.140625
1769484261.5742812,-128.41796875,-31.73828125,-51.26953125,-97.16796875
1769484261.5781875,-107.91015625,-34.66796875,-49.31640625,-58.10546875
1769484261.5820937,-129.39453125,-33.203125,-49.8046875,-47.8515625
1769484261.584125,-159.66796875,-35.64453125,-48.828125,-62.5
1769484261.5880313,-137.20703125,-37.59765625,-49.8046875,-61.5234375
1769484261.5919375,-106.93359375,-29.78515625,-50.78125,-34.1796875
1769484261.5958438,-111.81640625,-24.4140625,-45.41015625,-13.18359375
1769484261.59975,-125.0,-33.203125,-43.45703125,-26.85546875
1769484261.6036563,-112.3046875,-36.62109375,-40.52734375,-27.83203125
1769484261.6075625,-99.609375,-36.1328125,-40.52734375,-18.06640625
1769484261.6114688,-95.21484375,-39.55078125,-40.52734375,-22.4609375
1769484261.615375,-112.3046875,-44.921875,-42.96875,-40.0390625
1769484261.6192813,-122.0703125,-46.875,-46.38671875,-59.08203125
1769484261.6231875,-59.08203125,-37.109375,-50.78125,-55.17578125
1769484261.6270938,-41.015625,-35.15625,-47.36328125,-60.05859375
1769484261.629125,-88.37890625,-46.38671875,-39.0625,-69.3359375
1769484261.6330314,-90.8203125,-50.29296875,-43.45703125,-69.3359375
1769484261.6369376,-69.3359375,-43.9453125,-47.36328125,-62.5
1769484261.6408439,-47.8515625,-50.78125,-43.9453125,-56.15234375
1769484261.64475,-46.38671875,-55.17578125,-45.41015625,-70.80078125
1769484261.6486564,-50.78125,-57.6171875,-46.875,-90.33203125
1769484261.6525626,-45.8984375,-60.546875,-44.921875,-95.703125
1769484261.6564689,-39.55078125,-56.15234375,-47.8515625,-95.703125
1769484261.660375,-23.92578125,-59.08203125,-49.31640625,-125.0
1769484261.6642814,-48.828125,-62.98828125,-48.33984375,-152.83203125
1769484261.6681876,-32.2265625,-54.6875,-46.38671875,-146.97265625
1769484261.6720939,-3.90625,-54.19921875,-45.8984375,-132.32421875
1769484261.674125,-20.99609375,-54.6875,-42.48046875,-131.8359375
1769484261.6780312,-30.2734375,-55.6640625,-41.015625,-135.7421875
1769484261.6819375,-33.69140625,-59.5703125,-44.43359375,-138.18359375
1769484261.6858437,-18.06640625,-61.5234375,-41.015625,-117.1875
1769484261.68975,2.9296875,-62.01171875,-40.52734375,-112.3046875
1769484261.6936562,-16.6015625,-57.12890625,-45.8984375,-117.1875
1769484261.6975625,-48.828125,-54.6875,-44.921875,-115.72265625
1769484261.7014687,-12.20703125,-55.6640625,-47.8515625,-120.60546875
1769484261.705375,16.11328125,-47.36328125,-51.7578125,-109.86328125
1769484261.7092812,-7.32421875,-39.0625,-48.33984375,-102.5390625
1769484261.7131875,-28.3203125,-41.9921875,-46.875,-110.3515625
1769484261.7170937,-14.16015625,-45.8984375,-45.8984375,-84.47265625
1769484261.719125,25.390625,-42.48046875,-44.43359375,-54.19921875
1769484261.7230313,19.53125,-35.64453125,-42.48046875,-64.94140625
1769484261.7269375,-8.30078125,-36.1328125,-38.57421875,-85.44921875
1769484261.7308438,-5.859375,-41.9921875,-42.96875,-78.125
1769484261.73475,21.97265625,-37.59765625,-47.8515625,-53.7109375
1769484261.7386563,23.92578125,-34.66796875,-49.8046875,-53.7109375
1769484261.7425625,0.0,-34.66796875,-55.17578125,-62.01171875
1769484261.7464688,-20.01953125,-35.64453125,-50.29296875,-61.5234375
1769484261.750375,-9.27734375,-33.69140625,-48.33984375,-40.0390625
1769484261.7542813,16.11328125,-23.4375,-53.7109375,-33.203125
1769484261.7581875,8.30078125,-22.4609375,-49.31640625,-42.96875
1769484261.7620938,-20.01953125,-32.2265625,-49.8046875,-16.6015625
1769484261.764125,-11.71875,-34.66796875,-49.31640625,25.87890625
1769484261.7680314,16.11328125,-26.3671875,-47.36328125,51.7578125
1769484261.7719376,4.8828125,-25.390625,-49.8046875,56.15234375
1769484261.7758439,-16.6015625,-27.83203125,-49.8046875,42.96875
1769484261.77975,-5.859375,-28.80859375,-52.734375,43.45703125
1769484261.7836564,24.90234375,-30.76171875,-50.78125,67.3828125
1769484261.7875626,27.34375,-32.71484375,-47.36328125,61.03515625
1769484261.7914689,-19.04296875,-33.69140625,-47.8515625,28.80859375
1769484261.795375,-30.2734375,-32.2265625,-45.8984375,20.99609375
1769484261.7992814,7.8125,-34.66796875,-48.828125,42.96875
1769484261.8031876,7.8125,-34.66796875,-50.78125,62.5
1769484261.8070939,-9.27734375,-31.25,-50.29296875,52.24609375
1769484261.808125,-17.578125,-26.3671875,-49.31640625,32.2265625
1769484261.8120313,-10.25390625,-30.2734375,-45.8984375,31.25
1769484261.8159375,7.32421875,-29.296875,-40.52734375,41.9921875
1769484261.8198438,-4.39453125,-27.34375,-41.50390625,24.90234375
1769484261.82375,-22.4609375,-32.71484375,-46.875,-2.9296875
1769484261.8276563,-1.953125,-29.78515625,-45.41015625,8.7890625
1769484261.8315625,16.11328125,-26.85546875,-41.015625,13.18359375
1769484261.8354688,-5.37109375,-33.203125,-35.64453125,9.27734375
1769484261.839375,-32.71484375,-39.0625,-33.203125,0.9765625
1769484261.8432813,-20.5078125,-41.015625,-35.15625,-2.9296875
1769484261.8471875,14.16015625,-38.57421875,-34.1796875,19.53125
1769484261.8510938,20.5078125,-39.55078125,-29.296875,20.5078125
1769484261.869125,-7.8125,-33.69140625,-32.71484375,5.859375
1769484261.8730311,-24.4140625,-30.2734375,-35.15625,10.7421875
1769484261.8769374,8.30078125,-32.2265625,-29.78515625,30.76171875
1769484261.8808436,17.08984375,-30.76171875,-27.83203125,40.0390625
1769484261.88475,-8.30078125,-30.76171875,-35.64453125,17.08984375
1769484261.8886561,-15.13671875,-33.69140625,-39.55078125,-2.9296875
1769484261.8925624,-9.27734375,-34.1796875,-38.0859375,3.41796875
1769484261.8964686,-2.44140625,-31.73828125,-37.109375,15.13671875
1769484261.900375,-11.71875,-35.64453125,-33.203125,12.20703125
1769484261.9042811,-23.92578125,-36.1328125,-29.78515625,3.90625
1769484261.9081874,-10.25390625,-33.69140625,-31.73828125,-2.9296875
1769484261.9120936,-2.44140625,-31.25,-31.73828125,-0.9765625
1769484261.900125,-10.7421875,-30.2734375,-26.3671875,-2.9296875
1769484261.9040313,-29.296875,-34.1796875,-26.3671875,-22.4609375
1769484261.9079375,-27.83203125,-33.203125,-27.83203125,-17.08984375
1769484261.9118438,-3.41796875,-28.3203125,-30.76171875,13.671875
1769484261.91575,3.90625,-26.3671875,-37.59765625,14.6484375
1769484261.9196563,-13.671875,-30.76171875,-37.109375,-11.71875
1769484261.9235625,-22.94921875,-36.1328125,-38.57421875,-48.33984375
1769484261.9274688,-14.16015625,-37.109375,-35.64453125,-40.0390625
1769484261.931375,-16.11328125,-36.1328125,-29.296875,-25.390625
1769484261.9352813,-22.4609375,-39.55078125,-36.62109375,-65.91796875
1769484261.9391875,-40.0390625,-39.0625,-37.59765625,-94.7265625
1769484261.9430938,-43.45703125,-32.2265625,-31.73828125,-88.8671875
1769484261.975125,-9.765625,-36.1328125,-34.66796875,-78.125
1769484261.9790313,-18.06640625,-44.921875,-39.55078125,-92.7734375
1769484261.9829376,-27.34375,-40.0390625,-35.15625,-118.1640625
1769484261.9868438,-22.94921875,-34.66796875,-29.296875,-123.046875
1769484261.99075,-17.578125,-34.1796875,-29.78515625,-131.34765625
1769484261.9946563,-13.671875,-35.64453125,-35.15625,-150.87890625
1769484261.9985626,-32.71484375,-36.1328125,-38.57421875,-157.71484375
1769484262.0024688,-28.3203125,-29.78515625,-36.1328125,-160.64453125
1769484262.006375,-15.13671875,-27.83203125,-33.203125,-164.55078125
1769484262.0102813,-16.11328125,-30.76171875,-32.2265625,-155.76171875
1769484262.0141876,-26.3671875,-30.2734375,-35.64453125,-171.38671875
1769484262.0180938,-34.1796875,-28.3203125,-37.59765625,-184.08203125
1769484262.003125,-38.0859375,-31.73828125,-33.203125,-160.64453125
1769484262.0070312,-18.5546875,-31.25,-34.1796875,-137.6953125
1769484262.0109375,-32.71484375,-27.83203125,-38.0859375,-158.203125
1769484262.0148437,-44.921875,-26.85546875,-36.1328125,-179.19921875
1769484262.01875,-20.01953125,-27.34375,-40.0390625,-157.71484375
1769484262.0226562,-17.578125,-35.15625,-41.50390625,-141.6015625
1769484262.0265625,-39.55078125,-40.52734375,-43.45703125,-150.390625
1769484262.0304687,-41.9921875,-39.0625,-41.9921875,-170.41015625
1769484262.034375,-40.52734375,-35.64453125,-40.0390625,-162.59765625
1769484262.0382812,-17.08984375,-25.87890625,-37.109375,-146.484375
1769484262.0421875,-6.34765625,-26.85546875,-35.64453125,-131.8359375
1769484262.0460937,-33.69140625,-28.80859375,-38.0859375,-130.859375
1769484262.049125,-35.15625,-28.3203125,-36.62109375,-145.99609375
1769484262.0530312,-19.04296875,-26.85546875,-44.921875,-130.37109375
1769484262.0569375,-19.53125,-28.80859375,-48.33984375,-130.859375
1769484262.0608437,-44.43359375,-37.109375,-44.43359375,-158.203125
1769484262.06475,-62.98828125,-39.55078125,-51.7578125,-167.48046875
1769484262.0686562,-40.0390625,-38.0859375,-55.6640625,-155.76171875
1769484262.0725625,-16.6015625,-33.69140625,-49.8046875,-134.27734375
1769484262.0764687,-31.73828125,-38.57421875,-51.26953125,-153.80859375
1769484262.080375,-52.734375,-41.015625,-58.59375,-183.10546875
1769484262.0842812,-45.41015625,-32.2265625,-58.59375,-155.76171875
1769484262.0881875,-22.4609375,-32.2265625,-59.5703125,-129.39453125
1769484262.0920937,-25.87890625,-40.52734375,-58.10546875,-140.625
1769484262.094125,-44.921875,-42.48046875,-52.734375,-134.765625
1769484262.0980313,-24.4140625,-35.15625,-54.6875,-111.328125
1769484262.1019375,-3.41796875,-32.2265625,-47.8515625,-113.28125
1769484262.1058438,-27.34375,-39.0625,-26.3671875,-100.09765625
1769484262.10975,-54.6875,-41.9921875,-28.3203125,-117.1875
1769484262.1136563,-51.26953125,-41.50390625,-39.0625,-136.23046875
1769484262.1175625,-32.71484375,-45.8984375,-35.64453125,-94.23828125
1769484262.1214688,-13.671875,-46.875,-33.69140625,-83.0078125
1769484262.125375,-20.01953125,-45.8984375,-32.2265625,-96.6796875
1769484262.1292813,-40.0390625,-47.36328125,-28.80859375,-105.95703125
1769484262.1331875,-17.578125,-48.33984375,-27.83203125,-97.16796875
1769484262.1370938,0.48828125,-46.875,-26.3671875,-66.89453125
1769484262.154125,-15.13671875,-43.9453125,-28.3203125,-47.36328125
1769484262.1580312,-26.3671875,-43.9453125,-29.78515625,-42.96875
1769484262.1619375,-19.53125,-49.8046875,-29.78515625,-47.8515625
1769484262.1658437,-1.46484375,-43.45703125,-34.66796875,-52.734375
1769484262.16975,2.9296875,-38.57421875,-39.0625,-67.3828125
1769484262.1736562,-22.94921875,-42.48046875,-39.55078125,-92.28515625
1769484262.1775625,-27.34375,-44.921875,-33.203125,-88.37890625
1769484262.1814687,-1.953125,-43.45703125,-31.25,-64.94140625
1769484262.185375,4.39453125,-41.9921875,-30.2734375,-61.5234375
1769484262.1892812,-26.85546875,-46.875,-28.3203125,-76.66015625
1769484262.1931875,-41.50390625,-47.36328125,-34.1796875,-88.37890625
1769484262.1970937,-18.06640625,-44.921875,-36.1328125,-72.75390625
1769484262.185125,-14.16015625,-37.109375,-38.0859375,-67.3828125
1769484262.1890314,-37.109375,-36.1328125,-38.0859375,-89.35546875
1769484262.1929376,-39.0625,-33.203125,-31.73828125,-92.7734375
1769484262.1968439,-2.44140625,-23.4375,-35.15625,-83.0078125
1769484262.20075,8.30078125,-21.484375,-29.296875,-63.4765625
1769484262.2046564,-28.3203125,-23.92578125,-25.87890625,-73.2421875
1769484262.2085626,-39.55078125,-22.94921875,-24.4140625,-78.61328125
1769484262.2124689,-23.4375,-24.90234375,-27.34375,-55.17578125
1769484262.216375,-2.9296875,-27.34375,-31.25,-51.7578125
1769484262.2202814,-6.8359375,-25.87890625,-27.34375,-63.4765625
1769484262.2241876,-38.0859375,-26.85546875,-29.296875,-82.51953125
1769484262.2280939,-36.1328125,-25.390625,-29.296875,-87.40234375
1769484262.244125,-1.953125,-20.01953125,-29.78515625,-83.984375
1769484262.2480311,-5.859375,-23.92578125,-34.1796875,-90.8203125
1769484262.2519374,-33.69140625,-27.83203125,-30.76171875,-94.7265625
1769484262.2558436,-49.31640625,-29.78515625,-33.69140625,-97.65625
1769484262.25975,-26.3671875,-31.73828125,-41.9921875,-84.9609375
1769484262.2636561,-10.7421875,-32.71484375,-44.43359375,-83.0078125
1769484262.2675624,-37.109375,-26.85546875,-40.52734375,-112.3046875
1769484262.2714686,-37.109375,-20.01953125,-35.15625,-115.234375
1769484262.275375,-2.44140625,-20.99609375,-29.78515625,-74.21875
1769484262.2792811,0.0,-20.5078125,-30.2734375,-51.26953125
1769484262.2831874,-24.4140625,-18.06640625,-32.71484375,-64.453125
1769484262.2870936,-30.76171875,-19.53125,-33.69140625,-66.40625
1769484262.289125,-9.765625,-19.53125,-28.3203125,-49.31640625
1769484262.2930312,5.37109375,-15.625,-22.4609375,-37.59765625
1769484262.2969375,-15.625,-14.16015625,-22.4609375,-60.546875
1769484262.3008437,-32.2265625,-18.5546875,-24.90234375,-65.91796875
1769484262.30475,-10.7421875,-18.5546875,-28.80859375,-51.7578125
1769484262.3086562,5.37109375,-17.578125,-30.76171875,-46.38671875
1769484262.3125625,-4.8828125,-17.578125,-28.80859375,-50.29296875
1769484262.3164687,-30.76171875,-16.11328125,-30.2734375,-62.98828125
1769484262.320375,-20.5078125,-16.6015625,-34.1796875,-57.12890625
1769484262.3242812,7.32421875,-19.04296875,-34.66796875,-41.9921875
1769484262.3281875,9.765625,-12.20703125,-38.0859375,-45.8984375
1769484262.3320937,-9.27734375,-12.6953125,-38.57421875,-61.5234375
1769484262.334125,-38.57421875,-20.5078125,-36.62109375,-57.6171875
1769484262.3380313,-22.94921875,-20.99609375,-37.109375,-32.2265625
1769484262.3419375,-1.953125,-18.06640625,-38.57421875,-20.99609375
1769484262.3458438,-30.2734375,-18.5546875,-36.62109375,-2.9296875
1769484262.34975,-43.45703125,-23.4375,-32.71484375,21.97265625
1769484262.3536563,-16.11328125,-24.90234375,-40.52734375,28.80859375
1769484262.3575625,-15.13671875,-19.53125,-42.48046875,57.6171875
1769484262.3614688,-31.25,-18.06640625,-32.71484375,83.984375
1769484262.365375,-36.62109375,-23.4375,-29.78515625,76.66015625
1769484262.3692813,-18.5546875,-23.4375,-32.71484375,73.2421875
1769484262.3731875,-5.37109375,-20.99609375,-33.69140625,76.171875
1769484262.3770938,-18.06640625,-20.01953125,-32.2265625,69.3359375
1769484262.379125,-40.0390625,-22.94921875,-30.76171875,42.48046875
1769484262.3830314,-32.2265625,-17.08984375,-34.1796875,28.3203125
1769484262.3869376,-13.18359375,-6.34765625,-34.1796875,54.6875
1769484262.3908439,-12.20703125,-8.30078125,-33.69140625,65.91796875
1769484262.39475,-30.76171875,-11.71875,-37.59765625,44.921875
1769484262.3986564,-42.96875,-16.11328125,-35.64453125,39.55078125
1769484262.4025626,-18.06640625,-18.06640625,-33.203125,39.0625
1769484262.4064689,4.39453125,-20.99609375,-32.71484375,48.828125
1769484262.410375,-25.87890625,-20.99609375,-37.59765625,47.8515625
1769484262.4142814,-63.96484375,-16.11328125,-48.828125,29.78515625
1769484262.4181876,-43.45703125,-23.92578125,-45.41015625,41.9921875
1769484262.4220939,-13.671875,-27.83203125,-40.52734375,58.59375
1769484262.423125,-29.78515625,-22.94921875,-41.015625,48.828125
1769484262.4270313,-52.734375,-20.99609375,-37.109375,33.203125
1769484262.4309375,-58.10546875,-20.01953125,-39.0625,36.62109375
1769484262.4348438,-56.15234375,-20.99609375,-41.9921875,43.9453125
1769484262.43875,-47.8515625,-22.4609375,-34.66796875,50.78125
1769484262.4426563,-53.22265625,-24.4140625,-31.25,34.1796875
1769484262.4465625,-58.10546875,-24.90234375,-37.59765625,13.18359375
1769484262.4504688,-33.203125,-25.390625,-37.59765625,37.59765625
1769484262.454375,-34.1796875,-24.90234375,-36.1328125,49.31640625
1769484262.4582813,-46.38671875,-21.484375,-44.43359375,31.25
1769484262.4621875,-46.875,-19.04296875,-43.45703125,24.4140625
1769484262.4660938,-39.0625,-24.90234375,-42.48046875,36.1328125
1769484262.470125,-20.99609375,-23.92578125,-39.55078125,62.5
1769484262.4740312,-30.2734375,-19.53125,-34.66796875,63.96484375
1769484262.4779375,-55.6640625,-23.4375,-35.64453125,36.1328125
1769484262.4818437,-49.8046875,-21.97265625,-36.1328125,32.71484375
1769484262.48575,-30.2734375,-19.04296875,-38.57421875,45.8984375
1769484262.4896562,-39.0625,-24.90234375,-39.55078125,23.4375
1769484262.4935625,-65.91796875,-27.34375,-41.50390625,-4.8828125
1769484262.4974687,-52.734375,-27.83203125,-49.31640625,8.30078125
1769484262.501375,-3.90625,-16.11328125,-50.78125,41.015625
1769484262.5052812,-12.6953125,-11.71875,-39.55078125,10.25390625
1769484262.5091875,-60.546875,-30.2734375,-30.76171875,-40.52734375
1769484262.5130937,-59.5703125,-38.0859375,-40.0390625,-47.36328125
1769484262.514125,-25.390625,-32.2265625,-42.48046875,-24.90234375
1769484262.5180314,0.48828125,-31.73828125,-33.69140625,-10.7421875
1769484262.5219376,-14.6484375,-34.66796875,-32.2265625,-14.16015625
1769484262.5258439,-32.71484375,-33.69140625,-29.78515625,-15.625
1769484262.52975,-16.11328125,-27.83203125,-37.59765625,-2.44140625
1769484262.5336564,1.46484375,-25.87890625,-38.0859375,1.46484375
1769484262.5375626,-8.7890625,-30.76171875,-30.2734375,-20.01953125
1769484262.5414689,-34.1796875,-33.203125,-31.73828125,-45.8984375
1769484262.545375,-34.66796875,-36.1328125,-38.57421875,-49.31640625
1769484262.5492814,-8.7890625,-40.52734375,-41.015625,-20.99609375
1769484262.5531876,-12.6953125,-33.203125,-39.55078125,-14.16015625
1769484262.5570939,-56.15234375,-30.76171875,-41.015625,-34.1796875
1769484262.559125,-65.91796875,-38.0859375,-39.55078125,-35.15625
1769484262.5630312,-28.80859375,-35.64453125,-37.59765625,-9.765625
1769484262.5669374,-24.90234375,-33.203125,-42.48046875,-5.859375
1769484262.5708437,-60.546875,-37.59765625,-41.015625,-23.92578125
1769484262.57475,-62.01171875,-36.62109375,-42.96875,-37.59765625
1769484262.5786562,-35.64453125,-35.64453125,-44.921875,-24.4140625
1769484262.5825624,-24.90234375,-38.0859375,-44.43359375,-19.04296875
1769484262.5864687,-54.19921875,-41.015625,-43.9453125,-38.0859375
1769484262.590375,-65.91796875,-46.38671875,-38.0859375,-44.43359375
1769484262.5942812,-39.55078125,-46.38671875,-41.015625,-38.0859375
1769484262.5981874,-29.296875,-40.52734375,-44.43359375,-28.3203125
1769484262.6020937,-49.8046875,-42.48046875,-46.38671875,-37.59765625
1769484262.619125,-64.94140625,-44.921875,-51.26953125,-54.6875
1769484262.6230311,-50.29296875,-42.96875,-54.6875,-59.5703125
1769484262.6269374,-31.25,-41.50390625,-50.78125,-38.57421875
1769484262.6308436,-40.52734375,-45.8984375,-45.8984375,-31.73828125
1769484262.63475,-59.08203125,-45.8984375,-43.9453125,-40.52734375
1769484262.6386561,-43.45703125,-41.50390625,-44.921875,-23.92578125
1769484262.6425624,-31.73828125,-41.9921875,-46.38671875,5.859375
1769484262.6464686,-37.109375,-38.57421875,-45.8984375,11.71875
1769484262.650375,-54.6875,-36.62109375,-44.43359375,-13.18359375
1769484262.6542811,-58.59375,-40.52734375,-44.921875,-24.4140625
1769484262.6581874,-36.62109375,-37.109375,-52.734375,-20.01953125
1769484262.6620936,-30.76171875,-31.73828125,-56.15234375,-23.92578125
1769484262.664125,-44.43359375,-40.0390625,-53.7109375,-43.45703125
1769484262.6680312,-62.98828125,-45.8984375,-52.734375,-63.96484375
1769484262.6719375,-52.734375,-36.1328125,-55.6640625,-53.22265625
1769484262.6758437,-33.203125,-41.015625,-47.8515625,-25.390625
1769484262.67975,-35.15625,-44.921875,-34.66796875,-11.23046875
1769484262.6836562,-55.6640625,-38.57421875,-42.48046875,-27.83203125
1769484262.6875625,-65.4296875,-42.96875,-43.9453125,-43.9453125
1769484262.6914687,-33.203125,-45.41015625,-42.96875,-41.015625
1769484262.695375,-46.875,-43.45703125,-48.828125,-43.9453125
1769484262.6992812,-82.03125,-53.22265625,-56.15234375,-70.80078125
1769484262.7031875,-66.89453125,-54.19921875,-58.59375,-69.82421875
1769484262.7070937,-5.859375,-37.109375,-53.7109375,-41.50390625
1769484262.709125,-11.71875,-30.76171875,-44.43359375,-24.90234375
1769484262.7130313,-64.453125,-47.36328125,-39.0625,-40.0390625
1769484262.7169375,-40.52734375,-46.38671875,-43.45703125,-66.89453125
1769484262.7208438,-10.7421875,-37.59765625,-38.0859375,-44.921875
1769484262.72475,-10.7421875,-45.8984375,-29.296875,-19.04296875
1769484262.7286563,-28.3203125,-47.36328125,-30.2734375,-25.390625
1769484262.7325625,-42.48046875,-47.8515625,-33.203125,-34.66796875
1769484262.7364688,-25.390625,-46.38671875,-37.59765625,-42.96875
1769484262.740375,-3.41796875,-49.8046875,-36.62109375,-31.25
1769484262.7442813,-19.53125,-51.7578125,-38.57421875,-45.41015625
1769484262.7481875,-40.52734375,-47.8515625,-29.78515625,-58.59375
1769484262.7520938,-24.4140625,-42.96875,-22.94921875,-36.1328125
1769484262.753125,-4.8828125,-41.50390625,-30.2734375,-23.92578125
1769484262.7570312,-4.8828125,-45.8984375,-39.55078125,-39.55078125
1769484262.7609375,-26.85546875,-43.9453125,-36.62109375,-58.10546875
1769484262.7648437,-35.15625,-46.875,-32.2265625,-66.40625
1769484262.76875,-17.08984375,-52.734375,-39.0625,-63.4765625
1769484262.7726562,-9.765625,-51.7578125,-36.1328125,-46.875
1769484262.7765625,-33.203125,-48.828125,-39.55078125,-65.4296875
1769484262.7804687,-42.48046875,-45.41015625,-41.50390625,-80.078125
1769484262.784375,-21.97265625,-43.9453125,-34.66796875,-50.78125
1769484262.7882812,-12.20703125,-41.015625,-30.76171875,-32.2265625
1769484262.7921875,-34.1796875,-39.55078125,-31.73828125,-55.17578125
1769484262.7960937,-39.55078125,-38.57421875,-32.2265625,-78.61328125
1769484262.799125,-17.08984375,-41.015625,-33.203125,-75.68359375
1769484262.8030312,-10.7421875,-47.8515625,-34.66796875,-53.7109375
1769484262.8069375,-41.015625,-51.7578125,-34.66796875,-63.4765625
1769484262.8108437,-63.96484375,-53.7109375,-33.203125,-78.125
1769484262.81475,-51.26953125,-46.38671875,-34.66796875,-81.54296875
1769484262.8186562,-21.97265625,-36.62109375,-36.1328125,-67.87109375
1769484262.8225625,-21.97265625,-29.78515625,-37.59765625,-55.17578125
1769484262.8264687,-30.76171875,-26.85546875,-33.203125,-64.453125
1769484262.830375,-37.59765625,-27.34375,-26.3671875,-69.82421875
1769484262.8342812,-21.97265625,-28.80859375,-32.2265625,-58.10546875
1769484262.8381875,-10.25390625,-27.34375,-31.73828125,-36.62109375
1769484262.8420937,-36.62109375,-26.85546875,-26.85546875,-41.9921875
1769484262.858125,-51.26953125,-28.80859375,-31.73828125,-67.3828125
1769484262.8620312,-20.5078125,-29.296875,-35.15625,-61.03515625
1769484262.8659375,0.9765625,-20.5078125,-34.1796875,-41.9921875
1769484262.8698437,-27.34375,-18.06640625,-35.64453125,-47.8515625
1769484262.87375,-38.0859375,-21.97265625,-35.15625,-62.98828125
1769484262.8776562,-32.71484375,-15.625,-32.2265625,-51.26953125
1769484262.8815625,-5.37109375,-21.484375,-37.109375,-28.80859375
1769484262.8854687,7.8125,-29.78515625,-35.64453125,-21.484375
1769484262.889375,-28.80859375,-26.3671875,-33.69140625,-21.484375
1769484262.8932812,-44.43359375,-23.92578125,-37.59765625,-17.08984375
1769484262.8971875,-11.23046875,-26.3671875,-39.55078125,-4.8828125
1769484262.9010937,-2.9296875,-37.59765625,-36.62109375,15.13671875
1769484262.904125,-31.25,-32.2265625,-33.203125,0.9765625
1769484262.9080312,-25.87890625,-19.04296875,-34.66796875,-9.27734375
1769484262.9119375,-16.11328125,-20.5078125,-30.2734375,12.20703125
1769484262.9158437,-4.39453125,-18.5546875,-26.3671875,19.53125
1769484262.91975,-14.16015625,-25.87890625,-28.3203125,8.30078125
1769484262.9236562,-49.8046875,-39.55078125,-35.64453125,-17.08984375
1769484262.9275625,-35.64453125,-44.921875,-38.0859375,-25.87890625
1769484262.9314687,-21.97265625,-43.45703125,-38.57421875,-9.765625
1769484262.935375,-40.0390625,-50.29296875,-38.0859375,-6.8359375
1769484262.9392812,-42.96875,-49.31640625,-35.15625,-22.94921875
1769484262.9431875,-29.296875,-41.9921875,-35.64453125,-17.08984375
1769484262.9470937,-10.7421875,-43.45703125,-39.55078125,-1.953125
1769484262.934125,-3.90625,-47.8515625,-44.43359375,-8.30078125
1769484262.9380312,-39.55078125,-52.24609375,-42.96875,-25.390625
1769484262.9419374,-51.7578125,-44.43359375,-40.52734375,-34.1796875
1769484262.9458437,-27.83203125,-37.109375,-35.15625,-13.671875
1769484262.94975,-33.69140625,-37.109375,-30.2734375,-4.8828125
1769484262.9536562,-54.19921875,-38.57421875,-40.0390625,-30.2734375
1769484262.9575624,-47.8515625,-36.62109375,-41.015625,-30.2734375
1769484262.9614687,-42.96875,-33.203125,-39.55078125,-11.23046875
1769484262.965375,-26.3671875,-28.3203125,-39.0625,-3.41796875
1769484262.9692812,-30.2734375,-30.76171875,-37.59765625,-17.578125
1769484262.9731874,-57.6171875,-28.80859375,-33.69140625,-24.90234375
1769484262.9770937,-60.05859375,-27.34375,-31.25,-8.30078125
1769484262.994125,-13.18359375,-28.3203125,-35.15625,-3.41796875
1769484262.9980311,-15.13671875,-29.78515625,-34.66796875,13.671875
1769484263.0019374,-80.078125,-35.64453125,-36.62109375,5.37109375
1769484263.0058436,-79.58984375,-25.87890625,-36.62109375,-25.87890625
1769484263.00975,-55.6640625,-25.87890625,-31.73828125,0.48828125
1769484263.0136561,-27.83203125,-32.71484375,-35.15625,19.53125
1769484263.0175624,-41.9921875,-22.4609375,-43.9453125,-30.2734375
1769484263.0214686,-49.8046875,-20.99609375,-50.29296875,-31.25
1769484263.025375,-23.4375,-27.83203125,-50.78125,13.18359375
1769484263.0292811,-0.9765625,-30.76171875,-43.9453125,-8.30078125
1769484263.0331874,-27.83203125,-28.80859375,-35.64453125,-56.15234375
1769484263.0370936,-69.3359375,-32.2265625,-40.52734375,-47.8515625
1769484263.039125,-47.36328125,-29.296875,-43.45703125,-11.71875
1769484263.0430312,-37.59765625,-25.390625,-45.8984375,-33.69140625
1769484263.0469375,-20.01953125,-26.85546875,-52.24609375,-42.48046875
1769484263.0508437,-41.50390625,-33.203125,-54.6875,-30.2734375
1769484263.05475,-52.734375,-37.109375,-48.33984375,-18.5546875
1769484263.0586562,-33.203125,-35.15625,-46.38671875,-22.4609375
1769484263.0625625,-31.25,-37.59765625,-52.734375,-33.69140625
1769484263.0664687,-52.734375,-33.69140625,-52.734375,-35.64453125
1769484263.070375,-49.31640625,-42.96875,-41.9921875,-17.578125
1769484263.0742812,-19.53125,-40.52734375,-32.2265625,20.5078125
1769484263.0781875,-16.11328125,-28.3203125,-33.203125,35.64453125
1769484263.0820937,-40.0390625,-30.2734375,-34.66796875,11.23046875
1769484263.084125,-67.3828125,-24.90234375,-38.57421875,-18.5546875
1769484263.0880313,-26.85546875,-33.203125,-32.2265625,-5.859375
1769484263.0919375,10.7421875,-34.66796875,-30.76171875,27.34375
1769484263.0958438,-35.15625,-30.76171875,-30.76171875,21.97265625
1769484263.09975,-64.453125,-34.1796875,-35.64453125,-13.671875
1769484263.1036563,-19.53125,-38.57421875,-35.64453125,-13.671875
1769484263.1075625,-13.18359375,-37.59765625,-35.15625,12.6953125
1769484263.1114688,-35.64453125,-42.96875,-33.69140625,0.48828125
1769484263.115375,-51.26953125,-47.36328125,-41.9921875,-33.203125
1769484263.1192813,-26.85546875,-41.9921875,-45.8984375,-39.0625
1769484263.1231875,7.32421875,-32.71484375,-41.015625,-29.296875
1769484263.1270938,6.34765625,-38.57421875,-41.9921875,-12.6953125
1769484263.129125,-35.64453125,-41.9921875,-44.921875,-8.7890625
1769484263.1330314,-51.7578125,-38.57421875,-43.45703125,-1.46484375
1769484263.1369376,-19.04296875,-43.9453125,-34.66796875,38.57421875
1769484263.1408439,-20.01953125,-45.8984375,-34.66796875,43.9453125
1769484263.14475,-48.33984375,-41.015625,-42.48046875,33.69140625
1769484263.1486564,-56.640625,-44.921875,-44.921875,34.66796875
1769484263.1525626,-28.3203125,-43.45703125,-50.29296875,32.2265625
1769484263.1564689,-10.7421875,-40.0390625,-52.734375,35.15625
1769484263.160375,-33.69140625,-40.0390625,-51.7578125,19.04296875
1769484263.1642814,-68.359375,-37.109375,-55.17578125,-14.16015625
1769484263.1681876,-31.25,-36.62109375,-52.734375,-18.5546875
1769484263.1720939,-4.8828125,-34.1796875,-45.41015625,-13.671875
1769484263.174125,-50.29296875,-31.73828125,-45.8984375,-37.109375
1769484263.1780312,-78.125,-36.62109375,-46.875,-78.125
1769484263.1819375,-62.98828125,-40.52734375,-42.48046875,-80.56640625
1769484263.1858437,-33.203125,-43.9453125,-41.50390625,-53.7109375
1769484263.18975,-31.25,-39.0625,-44.43359375,-65.91796875
1769484263.1936562,-45.41015625,-38.0859375,-45.41015625,-79.58984375
1769484263.1975625,-46.38671875,-37.59765625,-42.48046875,-70.3125
1769484263.2014687,-13.18359375,-39.0625,-44.921875,-65.4296875
1769484263.205375,-13.18359375,-38.0859375,-43.45703125,-66.89453125
1769484263.2092812,-52.24609375,-33.69140625,-37.59765625,-77.63671875
1769484263.2131875,-63.96484375,-40.0390625,-38.0859375,-91.30859375
1769484263.2170937,-34.66796875,-41.9921875,-42.96875,-100.5859375
1769484263.220125,-23.4375,-35.64453125,-43.9453125,-92.7734375
1769484263.2240312,-32.2265625,-38.0859375,-44.921875,-109.375
1769484263.2279375,-47.36328125,-41.50390625,-48.33984375,-130.37109375
1769484263.2318437,-48.828125,-37.109375,-51.7578125,-112.79296875
1769484263.23575,-23.4375,-35.64453125,-49.8046875,-89.35546875
1769484263.2396562,-33.69140625,-42.48046875,-48.828125,-92.7734375
1769484263.2435625,-56.15234375,-47.36328125,-50.29296875,-120.60546875
1769484263.2474687,-44.43359375,-45.41015625,-49.8046875,-136.23046875
1769484263.251375,-15.625,-35.64453125,-48.33984375,-116.69921875
1769484263.2552812,-13.671875,-35.15625,-53.22265625,-109.86328125
1769484263.2591875,-17.08984375,-41.9921875,-60.546875,-126.953125
1769484263.2630937,-19.04296875,-40.52734375,-62.5,-136.71875
1769484263.264125,-25.390625,-41.015625,-61.03515625,-121.09375
1769484263.2680314,-20.5078125,-45.8984375,-57.12890625,-104.00390625
1769484263.2719376,-26.3671875,-51.26953125,-49.31640625,-117.67578125
1769484263.2758439,-30.76171875,-47.36328125,-46.875,-132.8125
1769484263.27975,-27.83203125,-46.38671875,-49.8046875,-119.62890625
1769484263.2836564,-13.671875,-46.38671875,-47.36328125,-95.703125
1769484263.2875626,-35.15625,-49.8046875,-46.875,-97.16796875
1769484263.2914689,-55.17578125,-45.41015625,-46.875,-109.375
1769484263.295375,-36.1328125,-41.50390625,-50.29296875,-109.375
1769484263.2992814,-17.08984375,-47.36328125,-54.6875,-92.7734375
1769484263.3031876,2.9296875,-47.36328125,-52.734375,-90.33203125
1769484263.3070939,-25.87890625,-46.875,-52.24609375,-107.91015625
1769484263.324125,-35.15625,-41.015625,-46.38671875,-98.6328125
1769484263.3280313,-0.48828125,-37.59765625,-41.015625,-72.265625
1769484263.3319376,-9.765625,-39.55078125,-45.8984375,-65.4296875
1769484263.3358438,-34.66796875,-40.0390625,-43.9453125,-73.73046875
1769484263.33975,-33.203125,-40.0390625,-41.9921875,-73.73046875
1769484263.3436563,2.44140625,-46.38671875,-46.38671875,-70.3125
1769484263.3475626,-5.37109375,-45.8984375,-42.96875,-74.70703125
1769484263.3514688,-46.875,-35.15625,-42.48046875,-92.28515625
1769484263.355375,-50.78125,-32.71484375,-45.8984375,-112.79296875
1769484263.3592813,-17.08984375,-36.62109375,-44.43359375,-96.6796875
1769484263.3631876,7.32421875,-38.0859375,-43.9453125,-87.40234375
1769484263.3670938,-12.20703125,-32.71484375,-43.45703125,-83.0078125
1769484263.369125,-36.1328125,-32.71484375,-42.96875,-71.2890625
1769484263.3730311,-12.20703125,-34.66796875,-43.9453125,-84.9609375
1769484263.3769374,-7.8125,-39.55078125,-45.41015625,-86.9140625
1769484263.3808436,-39.0625,-42.48046875,-50.78125,-76.171875
1769484263.38475,-47.8515625,-38.57421875,-50.78125,-91.796875
1769484263.3886561,-36.1328125,-41.015625,-47.8515625,-104.4921875
1769484263.3925624,-12.6953125,-41.50390625,-46.875,-86.9140625
1769484263.3964686,0.48828125,-34.1796875,-46.38671875,-69.3359375
1769484263.400375,-15.13671875,-33.203125,-46.38671875,-80.56640625
1769484263.4042811,-32.2265625,-41.50390625,-49.31640625,-95.21484375
1769484263.4081874,-18.06640625,-40.0390625,-52.24609375,-98.6328125
1769484263.4120936,7.32421875,-30.76171875,-56.640625,-90.33203125
1769484263.428125,-18.06640625,-32.2265625,-54.19921875,-100.09765625
1769484263.4320312,-42.96875,-37.109375,-50.29296875,-125.48828125
1769484263.4359374,-3.41796875,-35.64453125,-48.33984375,-104.98046875
1769484263.4398437,-0.48828125,-37.59765625,-42.96875,-71.2890625
1769484263.44375,-22.94921875,-42.48046875,-42.96875,-84.9609375
1769484263.4476562,-31.25,-38.0859375,-46.875,-105.95703125
1769484263.4515624,-21.484375,-34.66796875,-48.828125,-103.515625
1769484263.4554687,9.27734375,-39.55078125,-46.875,-95.21484375
1769484263.459375,12.6953125,-40.0390625,-44.921875,-99.12109375
1769484263.4632812,-23.92578125,-42.96875,-41.50390625,-120.60546875
1769484263.4671874,-21.97265625,-38.57421875,-38.0859375,-127.9296875
1769484263.4710937,12.6953125,-31.73828125,-33.203125,-114.2578125
1769484263.459125,25.87890625,-32.71484375,-36.1328125,-116.2109375
1769484263.4630313,-18.06640625,-35.15625,-43.45703125,-123.53515625
1769484263.4669375,-31.25,-26.85546875,-40.0390625,-117.67578125
1769484263.4708438,10.7421875,-23.4375,-41.015625,-110.83984375
1769484263.47475,8.7890625,-29.78515625,-43.45703125,-112.3046875
1769484263.4786563,-18.5546875,-26.3671875,-43.45703125,-117.67578125
1769484263.4825625,-26.85546875,-25.390625,-41.015625,-124.51171875
1769484263.4864688,-23.4375,-26.3671875,-32.71484375,-117.1875
1769484263.490375,3.41796875,-23.4375,-28.3203125,-96.6796875
1769484263.4942813,-6.8359375,-21.97265625,-30.76171875,-114.2578125
1769484263.4981875,-24.90234375,-20.99609375,-34.66796875,-135.7421875
1769484263.5020938,-11.71875,-23.92578125,-36.1328125,-116.69921875
1769484263.504125,10.7421875,-27.34375,-35.15625,-102.05078125
1769484263.5080314,7.32421875,-21.97265625,-32.2265625,-103.02734375
1769484263.5119376,-11.71875,-20.5078125,-37.109375,-123.53515625
1769484263.5158439,-15.625,-26.3671875,-39.55078125,-131.8359375
1769484263.51975,15.13671875,-24.90234375,-33.69140625,-106.4453125
1769484263.5236564,26.3671875,-20.01953125,-36.62109375,-102.05078125
1769484263.5275626,-21.484375,-21.97265625,-43.9453125,-114.74609375
1769484263.5314689,-34.1796875,-22.94921875,-42.48046875,-130.859375
1769484263.535375,-3.90625,-21.484375,-41.015625,-135.7421875
1769484263.5392814,-3.41796875,-18.5546875,-41.50390625,-124.0234375
1769484263.5431876,-16.6015625,-19.53125,-37.109375,-125.48828125
1769484263.5470939,-24.4140625,-16.11328125,-26.85546875,-130.859375
1769484263.549125,1.953125,-5.37109375,-25.390625,-132.32421875
1769484263.5530312,34.1796875,-6.8359375,-27.34375,-122.55859375
1769484263.5569375,-6.8359375,-15.13671875,-31.25,-121.58203125
1769484263.5608437,-46.38671875,-22.94921875,-35.64453125,-143.5546875
1769484263.56475,-25.390625,-24.4140625,-34.1796875,-145.5078125
1769484263.5686562,-6.34765625,-23.4375,-33.69140625,-124.0234375
1769484263.5725625,-16.11328125,-31.73828125,-37.109375,-110.83984375
1769484263.5764687,-36.1328125,-36.62109375,-37.109375,-122.55859375
1769484263.580375,-21.484375,-26.3671875,-31.25,-126.46484375
1769484263.5842812,7.8125,-18.06640625,-32.71484375,-93.26171875
1769484263.5881875,28.80859375,-19.04296875,-35.15625,-83.984375
1769484263.5920937,-7.8125,-24.90234375,-35.64453125,-95.703125
1769484263.594125,-34.66796875,-25.87890625,-34.66796875,-89.84375
1769484263.5980313,-14.16015625,-29.78515625,-33.203125,-61.5234375
1769484263.6019375,5.37109375,-37.109375,-32.2265625,-23.92578125
1769484263.6058438,-11.23046875,-33.203125,-35.15625,-23.92578125
1769484263.60975,-39.55078125,-33.69140625,-35.15625,-27.83203125
1769484263.6136563,-22.4609375,-35.15625,-32.2265625,-22.4609375
1769484263.6175625,2.9296875,-30.76171875,-41.50390625,-3.41796875
1769484263.6214688,-38.0859375,-41.015625,-45.8984375,2.44140625
1769484263.625375,-64.453125,-32.2265625,-45.41015625,-34.66796875
1769484263.6292813,-23.4375,-24.4140625,-41.50390625,-40.0390625
1769484263.6331875,-35.64453125,-33.203125,-37.59765625,2.9296875
1769484263.6370938,-43.9453125,-38.0859375,-32.2265625,9.765625
1769484263.639125,-33.203125,-36.62109375,-31.73828125,-26.85546875
1769484263.6430314,-35.64453125,-28.80859375,-36.62109375,-41.50390625
1769484263.6469376,-54.19921875,-28.3203125,-35.64453125,-21.97265625
1769484263.6508439,-41.9921875,-33.203125,-37.109375,-17.578125
1769484263.65475,-53.22265625,-34.1796875,-37.109375,-24.90234375
1769484263.6586564,-76.171875,-37.109375,-35.64453125,-39.55078125
1769484263.6625626,-44.43359375,-34.1796875,-41.50390625,-32.2265625
1769484263.6664689,-15.625,-31.25,-43.45703125,-29.296875
1769484263.670375,-38.0859375,-33.69140625,-36.1328125,-31.25
1769484263.6742814,-88.8671875,-32.2265625,-40.52734375,-44.921875
1769484263.6781876,-60.05859375,-28.80859375,-42.96875,-36.62109375
1769484263.6820939,-3.90625,-29.78515625,-38.0859375,-16.11328125
1769484263.699125,-13.18359375,-22.94921875,-43.45703125,-44.43359375
1769484263.7030313,-64.94140625,-27.34375,-45.8984375,-79.1015625
1769484263.7069376,-60.05859375,-37.59765625,-43.45703125,-70.3125
1769484263.7108438,-28.80859375,-33.69140625,-32.71484375,-40.0390625
1769484263.71475,-53.22265625,-29.78515625,-30.76171875,-47.36328125
1769484263.7186563,-58.59375,-33.203125,-35.64453125,-98.6328125
1769484263.7225626,-35.15625,-35.15625,-34.66796875,-105.46875
1769484263.7264688,-37.59765625,-41.015625,-37.59765625,-64.94140625
1769484263.730375,-36.1328125,-46.38671875,-32.71484375,-23.92578125
1769484263.7342813,-50.29296875,-53.22265625,-37.109375,-22.4609375
1769484263.7381876,-59.5703125,-51.7578125,-35.64453125,-50.29296875
1769484263.7420938,-38.0859375,-41.9921875,-30.2734375,-32.2265625
1769484263.729125,-11.23046875,-36.62109375,-38.57421875,-2.44140625
1769484263.7330313,1.46484375,-42.48046875,-41.015625,-20.5078125
1769484263.7369375,-49.8046875,-33.69140625,-39.55078125,-62.5
1769484263.7408438,-99.609375,-42.96875,-46.875,-96.19140625
1769484263.74475,-50.29296875,-53.7109375,-44.43359375,-63.4765625
1769484263.7486563,-25.390625,-50.78125,-38.0859375,-59.5703125
1769484263.7525625,-27.83203125,-40.52734375,-42.96875,-105.46875
1769484263.7564688,-54.19921875,-42.96875,-46.875,-109.375
1769484263.760375,-44.43359375,-48.828125,-41.50390625,-97.65625
1769484263.7642813,-3.90625,-45.41015625,-36.62109375,-94.7265625
1769484263.7681875,-52.734375,-39.0625,-39.55078125,-101.5625
1769484263.7720938,-51.26953125,-37.109375,-40.52734375,-105.95703125
1769484263.789125,-8.7890625,-37.109375,-46.38671875,-126.46484375
1769484263.7930312,-21.97265625,-45.41015625,-44.921875,-98.6328125
1769484263.7969375,-38.57421875,-30.2734375,-45.41015625,-108.88671875
1769484263.8008437,-39.55078125,-22.4609375,-45.41015625,-141.6015625
1769484263.80475,-20.01953125,-37.109375,-36.1328125,-104.4921875
1769484263.8086562,-24.4140625,-37.59765625,-40.52734375,-118.65234375
1769484263.8125625,-57.12890625,-34.66796875,-38.57421875,-126.953125
1769484263.8164687,-50.78125,-34.1796875,-32.71484375,-126.46484375
1769484263.820375,-31.73828125,-37.59765625,-40.52734375,-155.2734375
1769484263.8242812,-18.06640625,-30.2734375,-41.9921875,-131.8359375
1769484263.8281875,-35.64453125,-24.90234375,-34.1796875,-99.12109375
1769484263.8320937,-52.734375,-47.36328125,-35.64453125,-109.86328125
1769484263.835125,-39.55078125,-43.9453125,-37.109375,-122.0703125
1769484263.8390312,-22.4609375,-33.69140625,-32.71484375,-91.30859375
1769484263.8429375,-27.83203125,-37.109375,-35.15625,-72.75390625
1769484263.8468437,-56.15234375,-41.50390625,-32.71484375,-88.37890625
1769484263.85075,-68.359375,-40.52734375,-39.55078125,-105.46875
1769484263.8546562,-49.8046875,-37.109375,-46.38671875,-112.3046875
1769484263.8585625,-26.3671875,-41.50390625,-45.8984375,-104.00390625
1769484263.8624687,-27.34375,-46.38671875,-44.921875,-112.79296875
1769484263.866375,-61.5234375,-47.8515625,-41.9921875,-108.3984375
1769484263.8702812,-61.03515625,-40.0390625,-38.0859375,-87.40234375
1769484263.8741875,-21.484375,-34.1796875,-38.0859375,-75.1953125
1769484263.8780937,-4.39453125,-41.50390625,-36.62109375,-46.875
1769484263.879125,-21.97265625,-41.9921875,-33.69140625,-62.5
1769484263.8830314,-40.0390625,-30.76171875,-38.0859375,-77.63671875
1769484263.8869376,-7.8125,-32.71484375,-37.109375,-23.92578125
1769484263.8908439,5.859375,-39.0625,-29.78515625,-6.34765625
1769484263.89475,-20.99609375,-29.78515625,-31.73828125,-32.2265625
1769484263.8986564,-36.62109375,-21.484375,-38.57421875,-22.94921875
1769484263.9025626,-20.01953125,-19.04296875,-33.69140625,-10.7421875
1769484263.9064689,14.6484375,-26.85546875,-26.3671875,15.13671875
1769484263.910375,-15.625,-36.1328125,-20.99609375,33.203125
1769484263.9142814,-37.109375,-21.97265625,-20.5078125,18.5546875
1769484263.9181876,-5.37109375,-10.7421875,-34.66796875,-8.7890625
1769484263.9220939,-18.5546875,-22.94921875,-31.25,9.765625
1769484263.924125,-19.53125,-31.25,-21.97265625,8.30078125
1769484263.9280312,3.90625,-24.90234375,-18.5546875,4.39453125
1769484263.9319375,-2.44140625,-14.6484375,-22.94921875,14.6484375
1769484263.9358437,-16.11328125,-25.390625,-23.4375,19.53125
1769484263.93975,-5.859375,-32.71484375,-21.484375,32.71484375
1769484263.9436562,19.53125,-19.53125,-23.4375,22.94921875
1769484263.9475625,9.27734375,-15.625,-25.390625,-2.44140625
1769484263.9514687,-37.109375,-27.34375,-24.90234375,-7.32421875
1769484263.955375,1.953125,-22.94921875,-26.3671875,-31.25
1769484263.9592812,8.7890625,-12.6953125,-21.97265625,-35.64453125
1769484263.9631875,-37.109375,-20.99609375,-20.99609375,-41.015625
1769484263.9670937,-20.99609375,-28.80859375,-22.4609375,-46.875
1769484263.970125,7.8125,-23.4375,-20.01953125,-31.73828125
1769484263.9740312,-16.6015625,-11.23046875,-24.4140625,-37.109375
1769484263.9779375,-12.6953125,-6.34765625,-14.6484375,-38.57421875
1769484263.9818437,-4.8828125,-2.9296875,-15.13671875,-35.15625
1769484263.98575,-35.15625,-10.7421875,-15.625,-41.9921875
1769484263.9896562,-61.03515625,1.953125,-21.484375,-83.0078125
1769484263.9935625,-102.05078125,17.578125,-30.76171875,-150.87890625
1769484263.9974687,-83.984375,-2.44140625,-20.01953125,-149.90234375
1769484264.001375,-54.6875,0.9765625,-16.6015625,-105.95703125
1769484264.0052812,-44.921875,11.23046875,-18.06640625,-125.48828125
1769484264.0091875,-79.58984375,8.7890625,-16.6015625,-167.48046875
1769484264.0130937,-129.39453125,-3.41796875,-14.16015625,-197.75390625
1769484264.014125,-100.5859375,-9.27734375,-11.71875,-178.22265625
1769484264.0180314,-93.26171875,-6.8359375,-12.20703125,-177.24609375
1769484264.0219376,-107.421875,-5.37109375,-14.16015625,-237.79296875
1769484264.0258439,-122.55859375,-5.37109375,-15.13671875,-236.81640625
1769484264.02975,-127.9296875,-1.953125,-20.01953125,-230.46875
1769484264.0336564,-120.60546875,-11.23046875,-20.99609375,-241.2109375
1769484264.0375626,-126.953125,-13.671875,-13.18359375,-208.984375
1769484264.0414689,-143.5546875,-5.859375,-5.859375,-187.98828125
1769484264.045375,-145.99609375,-4.8828125,-4.8828125,-179.19921875
1769484264.0492814,-92.7734375,0.0,-7.8125,-169.43359375
1769484264.0531876,-73.2421875,-4.39453125,-10.7421875,-172.8515625
1769484264.0570939,-93.26171875,-8.30078125,-17.08984375,-187.5
1769484264.074125,-76.171875,-12.6953125,-19.04296875,-165.52734375
1769484264.0780313,-64.453125,-20.5078125,-12.6953125,-98.6328125
1769484264.0819376,-64.94140625,-17.578125,-16.11328125,-113.76953125
1769484264.0858438,-84.9609375,-12.6953125,-20.5078125,-171.38671875
1769484264.08975,-69.82421875,-9.27734375,-20.99609375,-130.37109375
1769484264.0936563,-25.87890625,-16.11328125,-18.06640625,-86.42578125
1769484264.0975626,-40.0390625,-20.01953125,-22.94921875,-107.421875
1769484264.1014688,-76.66015625,-17.578125,-26.3671875,-104.00390625
1769484264.105375,-70.3125,-15.625,-25.390625,-85.44921875
1769484264.1092813,-18.5546875,-13.671875,-31.25,-90.33203125
1769484264.1131876,23.92578125,-15.13671875,-36.62109375,-97.16796875
1769484264.1170938,12.20703125,-18.06640625,-32.71484375,-81.0546875
1769484264.119125,-47.8515625,-21.97265625,-30.2734375,-76.171875
1769484264.1230311,-42.96875,-22.94921875,-40.52734375,-93.26171875
1769484264.1269374,23.4375,-13.671875,-50.78125,-92.28515625
1769484264.1308436,17.08984375,-10.25390625,-44.43359375,-92.28515625
1769484264.13475,-5.859375,-17.08984375,-34.1796875,-95.703125
1769484264.1386561,18.06640625,-17.578125,-35.64453125,-100.5859375
1769484264.1425624,36.62109375,-16.11328125,-41.015625,-92.7734375
1769484264.1464686,23.92578125,-17.578125,-38.57421875,-67.3828125
1769484264.150375,18.06640625,-25.87890625,-33.69140625,-70.80078125
1769484264.1542811,3.90625,-22.4609375,-34.66796875,-70.3125
1769484264.1581874,25.87890625,-12.6953125,-28.80859375,-27.83203125
1769484264.1620936,65.4296875,-16.11328125,-26.85546875,-30.2734375
1769484264.164125,27.34375,-20.01953125,-30.2734375,-46.38671875
1769484264.1680312,-0.9765625,-20.99609375,-28.80859375,-47.8515625
1769484264.1719375,16.11328125,-20.99609375,-32.2265625,-65.4296875
1769484264.1758437,52.734375,-13.671875,-33.69140625,-27.34375
1769484264.17975,46.875,-13.18359375,-33.203125,-7.32421875
1769484264.1836562,18.5546875,-14.16015625,-36.1328125,-43.9453125
1769484264.1875625,23.92578125,-9.27734375,-39.0625,-34.66796875
1769484264.1914687,42.48046875,-16.6015625,-38.57421875,-8.30078125
1769484264.195375,20.01953125,-30.76171875,-33.69140625,0.0
1769484264.1992812,3.41796875,-28.3203125,-35.15625,-6.8359375
1769484264.2031875,17.08984375,-12.6953125,-39.0625,-31.25
1769484264.2070937,59.5703125,-16.11328125,-39.55078125,-21.97265625
1769484264.208125,54.19921875,-30.76171875,-35.64453125,-5.859375
1769484264.2120314,2.44140625,-30.76171875,-35.64453125,-30.2734375
1769484264.2159376,-17.08984375,-33.69140625,-39.55078125,-49.8046875
1769484264.2198439,10.25390625,-34.66796875,-34.66796875,-37.59765625
1769484264.22375,49.8046875,-29.296875,-36.62109375,-34.1796875
1769484264.2276564,62.98828125,-22.94921875,-36.1328125,-38.57421875
1769484264.2315626,12.6953125,-23.4375,-37.59765625,-48.828125
1769484264.2354689,7.32421875,-25.87890625,-41.015625,-46.875
1769484264.239375,47.36328125,-28.3203125,-33.69140625,-40.52734375
1769484264.2432814,29.78515625,-21.484375,-34.66796875,-74.70703125
1769484264.2471876,0.48828125,-20.5078125,-30.76171875,-78.61328125
1769484264.2510939,13.671875,-19.53125,-25.390625,-40.0390625
1769484264.254125,29.296875,-21.484375,-29.296875,-23.92578125
1769484264.2580314,31.73828125,-18.5546875,-37.59765625,-43.9453125
1769484264.2619376,27.83203125,-15.13671875,-41.9921875,-66.89453125
1769484264.2658439,11.23046875,-20.01953125,-42.96875,-80.56640625
1769484264.26975,24.90234375,-19.04296875,-38.57421875,-65.4296875
1769484264.2736564,21.97265625,-20.5078125,-37.109375,-37.59765625
1769484264.2775626,-3.90625,-24.90234375,-35.15625,-43.45703125
1769484264.2814689,14.6484375,-20.01953125,-30.2734375,-58.10546875
1769484264.285375,35.64453125,-17.578125,-30.76171875,-56.15234375
1769484264.2892814,21.97265625,-20.5078125,-32.71484375,-55.17578125
1769484264.2931876,9.765625,-19.53125,-30.76171875,-67.87109375
1769484264.2970939,-0.9765625,-16.6015625,-25.87890625,-73.73046875
1769484264.299125,0.9765625,-15.625,-25.390625,-75.68359375
1769484264.3030312,23.4375,-16.11328125,-32.71484375,-59.08203125
1769484264.3069375,23.92578125,-21.97265625,-32.71484375,-43.9453125
1769484264.3108437,-6.8359375,-29.296875,-35.15625,-85.44921875
1769484264.31475,-3.41796875,-25.87890625,-39.0625,-103.515625
1769484264.3186562,4.8828125,-22.4609375,-35.15625,-63.4765625
1769484264.3225625,5.859375,-25.87890625,-33.203125,-51.7578125
1769484264.3264687,-3.41796875,-31.25,-33.203125,-71.2890625
1769484264.330375,-14.6484375,-23.4375,-32.2265625,-55.6640625
1769484264.3342812,7.8125,-19.53125,-33.203125,-29.78515625
1769484264.3381875,16.11328125,-25.87890625,-28.3203125,-29.296875
1769484264.3420937,9.27734375,-32.2265625,-28.3203125,-30.2734375
1769484264.358125,-20.01953125,-34.1796875,-27.34375,-39.55078125
1769484264.3620312,-16.11328125,-24.90234375,-22.4609375,-20.99609375
1769484264.3659375,13.18359375,-26.3671875,-26.85546875,8.7890625
1769484264.3698437,-16.11328125,-36.62109375,-33.203125,-0.9765625
1769484264.37375,-29.296875,-30.76171875,-32.2265625,-24.90234375
1769484264.3776562,-8.30078125,-32.71484375,-32.71484375,-18.06640625
1769484264.3815625,4.8828125,-54.19921875,-41.9921875,-15.625
1769484264.3854687,-11.23046875,-61.5234375,-41.015625,-25.390625
1769484264.389375,-46.38671875,-55.17578125,-36.62109375,-24.4140625
1769484264.3932812,-35.15625,-58.10546875,-35.15625,-33.203125
1769484264.3971875,-8.30078125,-61.03515625,-36.1328125,-10.7421875
1769484264.4010937,-7.32421875,-58.10546875,-33.69140625,6.34765625
1769484264.388125,-31.73828125,-51.7578125,-29.296875,-7.8125
1769484264.3920312,-35.15625,-53.22265625,-23.4375,-10.7421875
1769484264.3959374,4.8828125,-50.78125,-25.87890625,-1.953125
1769484264.3998437,30.76171875,-51.26953125,-31.25,5.37109375
1769484264.40375,-7.32421875,-58.59375,-34.1796875,1.46484375
1769484264.4076562,-42.96875,-57.6171875,-34.66796875,-17.578125
1769484264.4115624,-24.4140625,-56.640625,-31.73828125,-10.7421875
1769484264.4154687,2.9296875,-47.36328125,-28.3203125,16.11328125
1769484264.419375,6.8359375,-46.38671875,-30.76171875,9.765625
1769484264.4232812,-18.5546875,-47.36328125,-28.80859375,-5.859375
1769484264.4271874,-18.06640625,-40.0390625,-30.76171875,3.90625
1769484264.4310937,10.7421875,-37.109375,-29.296875,20.5078125
1769484264.433125,-5.37109375,-35.64453125,-29.296875,4.8828125
1769484264.4370313,-21.97265625,-39.0625,-33.69140625,-19.04296875
1769484264.4409375,-20.99609375,-33.69140625,-29.78515625,-11.71875
1769484264.4448438,-9.27734375,-28.80859375,-24.90234375,4.39453125
1769484264.44875,4.39453125,-31.25,-26.85546875,0.0
1769484264.4526563,-13.671875,-35.15625,-36.1328125,-27.34375
1769484264.4565625,-39.55078125,-36.1328125,-42.96875,-46.875
1769484264.4604688,-19.53125,-31.73828125,-42.48046875,-32.71484375
1769484264.464375,-3.90625,-35.64453125,-40.52734375,-24.90234375
1769484264.4682813,-16.11328125,-39.0625,-38.57421875,-31.73828125
1769484264.4721875,-29.78515625,-35.15625,-39.0625,-45.8984375
1769484264.4760938,-8.30078125,-34.66796875,-35.64453125,-39.55078125
1769484264.509125,27.34375,-34.1796875,-37.109375,-28.80859375
1769484264.5130312,1.953125,-32.2265625,-41.015625,-36.1328125
1769484264.5169375,-45.8984375,-36.1328125,-39.55078125,-59.5703125
1769484264.5208437,-37.109375,-37.109375,-36.1328125,-50.78125
1769484264.52475,-9.765625,-36.1328125,-36.62109375,-14.6484375
1769484264.5286562,5.859375,-33.69140625,-32.71484375,-6.34765625
1769484264.5325625,-16.11328125,-35.64453125,-27.34375,-33.203125
1769484264.5364687,-27.83203125,-31.25,-27.83203125,-36.62109375
1769484264.540375,-0.9765625,-24.4140625,-29.78515625,-16.11328125
1769484264.5442812,8.7890625,-34.66796875,-26.3671875,-2.44140625
1769484264.5481875,-28.3203125,-36.1328125,-22.94921875,-12.6953125
1769484264.5520937,-43.9453125,-35.15625,-28.80859375,-23.4375
1769484264.553125,-28.80859375,-41.50390625,-33.69140625,-20.99609375
1769484264.5570312,-3.41796875,-42.96875,-35.15625,-3.41796875
1769484264.5609374,-12.6953125,-39.55078125,-33.69140625,-4.8828125
1769484264.5648437,-54.19921875,-40.0390625,-36.1328125,-18.06640625
1769484264.56875,-50.29296875,-41.015625,-37.59765625,-18.5546875
1769484264.5726562,-18.5546875,-41.50390625,-33.203125,4.8828125
1769484264.5765624,-3.90625,-42.96875,-32.2265625,11.23046875
1769484264.5804687,-26.85546875,-42.96875,-36.62109375,-28.3203125
1769484264.584375,-40.0390625,-42.96875,-39.0625,-35.15625
1769484264.5882812,10.7421875,-37.109375,-35.64453125,-6.8359375
1769484264.5921874,7.32421875,-31.25,-34.1796875,2.44140625
1769484264.5960937,-38.57421875,-37.59765625,-38.57421875,-7.32421875
1769484264.584125,-39.55078125,-32.2265625,-39.55078125,-18.5546875
1769484264.5880313,-14.16015625,-20.5078125,-32.2265625,4.39453125
1769484264.5919375,6.8359375,-15.13671875,-28.3203125,21.97265625
1769484264.5958438,-20.01953125,-24.4140625,-32.2265625,-0.48828125
1769484264.59975,-42.48046875,-34.66796875,-34.1796875,-16.6015625
1769484264.6036563,-18.5546875,-29.78515625,-30.76171875,-0.9765625
1769484264.6075625,20.99609375,-25.87890625,-26.3671875,26.85546875
1769484264.6114688,-14.6484375,-31.73828125,-23.92578125,12.6953125
1769484264.615375,-44.43359375,-25.87890625,-17.08984375,-5.859375
1769484264.6192813,-20.5078125,-19.04296875,-20.01953125,-2.9296875
1769484264.6231875,9.765625,-21.484375,-24.90234375,13.18359375
1769484264.6270938,1.46484375,-20.99609375,-26.85546875,16.6015625
1769484264.628125,-41.50390625,-30.2734375,-35.64453125,-17.08984375
1769484264.6320312,-47.36328125,-30.76171875,-32.2265625,-41.015625
1769484264.6359375,-28.80859375,-19.04296875,-25.87890625,-20.5078125
1769484264.6398437,-9.27734375,-20.5078125,-23.4375,-0.48828125
1769484264.64375,-34.66796875,-30.76171875,-23.92578125,-29.296875
1769484264.6476562,-52.734375,-35.64453125,-28.3203125,-45.8984375
1769484264.6515625,-36.62109375,-33.203125,-28.80859375,-24.4140625
1769484264.6554687,-20.5078125,-31.73828125,-31.25,-12.20703125
1769484264.659375,-20.5078125,-37.109375,-38.0859375,-25.87890625
1769484264.6632812,-35.64453125,-28.80859375,-41.015625,-40.0390625
1769484264.6671875,-36.1328125,-32.2265625,-44.43359375,-47.8515625
1769484264.6710937,-18.06640625,-35.64453125,-38.57421875,-41.50390625
1769484264.674125,-23.4375,-24.90234375,-30.2734375,-24.4140625
1769484264.6780312,-40.52734375,-23.4375,-32.2265625,-36.62109375
1769484264.6819375,-16.11328125,-19.53125,-33.203125,-41.9921875
1769484264.6858437,4.8828125,-17.08984375,-36.1328125,-17.08984375
1769484264.68975,-7.8125,-23.4375,-41.9921875,-19.04296875
1769484264.6936562,-48.828125,-36.1328125,-45.8984375,-41.50390625
1769484264.6975625,-51.7578125,-43.9453125,-50.78125,-33.69140625
1769484264.7014687,-14.16015625,-41.015625,-47.8515625,-5.859375
1769484264.705375,-2.44140625,-31.73828125,-41.9921875,-3.90625
1769484264.7092812,-20.5078125,-36.1328125,-41.015625,-21.97265625
1769484264.7131875,-33.69140625,-43.9453125,-44.43359375,-34.1796875
1769484264.7170937,-21.484375,-45.8984375,-49.8046875,-11.71875
1769484264.719125,0.9765625,-40.52734375,-46.875,4.8828125
1769484264.7230313,-9.765625,-33.69140625,-44.43359375,-0.9765625
1769484264.7269375,-30.76171875,-34.66796875,-41.9921875,-3.41796875
1769484264.7308438,-13.671875,-32.71484375,-35.15625,2.9296875
1769484264.73475,24.4140625,-29.78515625,-33.69140625,25.87890625
1769484264.7386563,7.8125,-24.4140625,-29.78515625,37.109375
1769484264.7425625,-19.53125,-23.4375,-25.87890625,21.484375
1769484264.7464688,0.0,-22.94921875,-29.78515625,8.7890625
1769484264.750375,12.6953125,-20.01953125,-36.62109375,29.78515625
1769484264.7542813,5.37109375,-22.94921875,-39.0625,37.109375
1769484264.7581875,-10.7421875,-27.83203125,-38.0859375,13.18359375
1769484264.7620938,-18.5546875,-27.34375,-38.0859375,0.0
1769484264.779125,-0.9765625,-23.4375,-38.57421875,-0.48828125
1769484264.7830312,20.01953125,-22.4609375,-39.0625,6.8359375
1769484264.7869375,-4.8828125,-27.83203125,-36.62109375,1.953125
1769484264.7908437,-36.1328125,-28.80859375,-36.1328125,-22.4609375
1769484264.79475,0.48828125,-28.3203125,-32.2265625,-21.97265625
1769484264.7986562,6.8359375,-33.203125,-28.3203125,3.41796875
1769484264.8025625,-17.08984375,-41.015625,-36.1328125,-10.25390625
1769484264.8064687,-40.0390625,-40.52734375,-37.59765625,-34.1796875
1769484264.810375,-34.1796875,-38.57421875,-26.3671875,-18.06640625
1769484264.8142812,-4.8828125,-40.0390625,-21.97265625,2.9296875
1769484264.8181875,-13.18359375,-37.109375,-19.53125,22.4609375
1769484264.8220937,-31.73828125,-31.73828125,-21.484375,8.7890625
1769484264.808125,-26.3671875,-32.71484375,-25.390625,1.46484375
1769484264.8120313,-14.16015625,-37.109375,-32.2265625,18.06640625
1769484264.8159375,-16.11328125,-36.62109375,-37.109375,13.671875
1769484264.8198438,-34.66796875,-30.2734375,-32.71484375,-3.41796875
1769484264.82375,-43.45703125,-29.78515625,-30.76171875,-12.20703125
1769484264.8276563,-17.08984375,-29.78515625,-33.203125,5.859375
1769484264.8315625,1.953125,-22.94921875,-29.78515625,23.4375
1769484264.8354688,-18.5546875,-21.97265625,-25.87890625,7.8125
1769484264.839375,-34.1796875,-28.3203125,-29.78515625,-25.390625
1769484264.8432813,-24.90234375,-31.73828125,-30.76171875,-6.34765625
1769484264.8471875,-9.765625,-35.15625,-32.71484375,16.11328125
1769484264.8510938,-14.6484375,-32.2265625,-36.62109375,5.859375
1769484264.885125,-27.83203125,-31.25,-35.15625,-1.46484375
1769484264.8890312,-33.203125,-35.15625,-30.2734375,-4.39453125
1769484264.8929374,-12.20703125,-32.2265625,-30.2734375,13.18359375
1769484264.8968437,2.44140625,-25.87890625,-31.73828125,16.6015625
1769484264.90075,-31.25,-27.34375,-27.34375,7.8125
1769484264.9046562,-42.48046875,-36.62109375,-24.4140625,8.7890625
1769484264.9085624,-7.8125,-36.1328125,-25.390625,20.99609375
1769484264.9124687,12.20703125,-35.15625,-25.87890625,15.13671875
1769484264.916375,-22.94921875,-39.0625,-26.3671875,-20.5078125
1769484264.9202812,-43.45703125,-37.59765625,-25.87890625,-24.4140625
1769484264.9241874,-14.6484375,-33.69140625,-25.390625,-8.7890625
1769484264.9280937,-6.8359375,-35.64453125,-25.87890625,0.9765625
1769484264.913125,-28.80859375,-36.1328125,-25.390625,-10.25390625
1769484264.9170313,-25.390625,-28.3203125,-27.83203125,-29.78515625
1769484264.9209375,0.48828125,-17.578125,-26.85546875,-23.92578125
1769484264.9248438,10.7421875,-20.5078125,-25.87890625,-5.859375
1769484264.92875,-8.30078125,-26.3671875,-31.73828125,-17.08984375
1769484264.9326563,-22.94921875,-22.94921875,-34.1796875,-33.69140625
1769484264.9365625,-15.13671875,-17.578125,-40.0390625,-25.390625
1769484264.9404688,-1.46484375,-18.5546875,-40.52734375,-6.8359375
1769484264.944375,16.6015625,-17.08984375,-35.15625,-15.13671875
1769484264.9482813,-10.7421875,-16.6015625,-33.203125,-46.38671875
1769484264.9521875,-43.9453125,-25.87890625,-33.203125,-36.1328125
1769484264.9560938,-24.90234375,-29.296875,-25.390625,-4.39453125
1769484264.959125,-10.7421875,-31.25,-24.90234375,8.7890625
1769484264.9630313,-17.08984375,-40.0390625,-34.66796875,-3.90625
1769484264.9669375,-11.23046875,-41.015625,-42.96875,-26.3671875
1769484264.9708438,-4.8828125,-42.48046875,-47.8515625,-32.71484375
1769484264.97475,5.859375,-42.96875,-48.33984375,-20.99609375
1769484264.9786563,-27.83203125,-43.9453125,-45.41015625,-30.76171875
1769484264.9825625,-59.08203125,-46.38671875,-41.50390625,-41.50390625
1769484264.9864688,-23.4375,-42.48046875,-35.15625,-20.99609375
1769484264.990375,-7.8125,-43.9453125,-38.0859375,-19.53125
1769484264.9942813,-1.46484375,-40.52734375,-48.828125,-30.2734375
1769484264.9981875,-14.16015625,-35.64453125,-47.8515625,-53.22265625
1769484265.0020938,-26.3671875,-42.48046875,-43.9453125,-64.94140625
1769484265.003125,5.859375,-38.57421875,-44.43359375,-42.96875
1769484265.0070312,13.671875,-27.34375,-38.57421875,-32.71484375
1769484265.0109375,-21.97265625,-31.73828125,-38.57421875,-61.5234375
1769484265.0148437,-42.48046875,-41.015625,-40.52734375,-88.8671875
1769484265.01875,-4.8828125,-44.43359375,-39.0625,-78.61328125
1769484265.0226562,19.04296875,-35.64453125,-38.0859375,-46.38671875
1769484265.0265625,-22.94921875,-35.64453125,-38.0859375,-31.73828125
1769484265.0304687,-30.76171875,-41.9921875,-44.43359375,-44.43359375
1769484265.034375,-21.97265625,-41.50390625,-50.78125,-61.5234375
1769484265.0382812,-20.5078125,-36.62109375,-53.7109375,-56.640625
1769484265.0421875,-35.15625,-39.55078125,-50.78125,-56.15234375
1769484265.0460937,-48.33984375,-44.921875,-45.41015625,-71.2890625
1769484265.048125,-13.18359375,-37.109375,-41.50390625,-56.640625
1769484265.0520313,-8.7890625,-39.55078125,-40.0390625,-48.33984375
1769484265.0559375,-25.87890625,-55.17578125,-40.52734375,-63.96484375
1769484265.0598438,-55.17578125,-60.546875,-41.015625,-86.9140625
1769484265.06375,-49.31640625,-60.546875,-43.45703125,-83.984375
1769484265.0676563,-32.71484375,-67.3828125,-46.875,-54.6875
1769484265.0715625,-51.7578125,-72.75390625,-48.828125,-66.40625
1769484265.0754688,-68.359375,-72.75390625,-48.33984375,-88.8671875
1769484265.079375,-66.89453125,-63.4765625,-52.734375,-85.9375
1769484265.0832813,-53.7109375,-59.08203125,-54.6875,-71.77734375
1769484265.0871875,-35.15625,-60.546875,-55.6640625,-59.08203125
1769484265.0910938,-42.48046875,-61.5234375,-60.05859375,-67.3828125
1769484265.094125,-64.94140625,-62.01171875,-59.08203125,-86.42578125
1769484265.0980313,-45.41015625,-59.5703125,-57.12890625,-62.01171875
1769484265.1019375,-13.18359375,-53.22265625,-58.59375,-43.45703125
1769484265.1058438,-26.85546875,-50.29296875,-60.546875,-51.7578125
1769484265.10975,-49.31640625,-44.921875,-56.15234375,-53.22265625
1769484265.1136563,-36.62109375,-41.015625,-51.26953125,-53.22265625
1769484265.1175625,7.32421875,-37.109375,-51.26953125,-40.52734375
1769484265.1214688,13.18359375,-35.64453125,-50.78125,-42.96875
1769484265.125375,-20.5078125,-32.71484375,-47.8515625,-69.82421875
1769484265.1292813,-16.11328125,-33.69140625,-43.45703125,-64.453125
1769484265.1331875,11.23046875,-25.87890625,-36.1328125,-33.69140625
1769484265.1370938,14.16015625,-21.484375,-28.80859375,-27.83203125
1769484265.140125,-9.27734375,-28.3203125,-27.34375,-33.69140625
1769484265.1440313,-22.4609375,-29.78515625,-31.25,-28.3203125
1769484265.1479375,-13.671875,-30.2734375,-39.0625,-19.53125
1769484265.1518438,-8.7890625,-34.66796875,-43.9453125,-16.11328125
1769484265.15575,-16.11328125,-38.57421875,-42.96875,-26.3671875
1769484265.1596563,-26.85546875,-35.64453125,-41.9921875,-41.015625
1769484265.1635625,-25.390625,-28.3203125,-37.109375,-38.57421875
1769484265.1674688,-4.8828125,-27.34375,-34.1796875,-21.484375
1769484265.171375,-15.625,-36.1328125,-33.69140625,-20.01953125
1769484265.1752813,-35.15625,-43.45703125,-37.109375,-39.55078125
1769484265.1791875,-33.69140625,-42.96875,-41.9921875,-40.0390625
1769484265.1830938,-23.92578125,-35.15625,-43.9453125,-34.1796875
1769484265.183125,-11.23046875,-30.76171875,-47.8515625,-42.48046875
1769484265.1870313,-33.203125,-32.71484375,-47.36328125,-67.87109375
1769484265.1909375,-49.31640625,-27.34375,-43.9453125,-63.4765625
1769484265.1948438,-20.5078125,-11.71875,-44.43359375,-39.0625
1769484265.19875,0.9765625,-13.18359375,-47.8515625,-42.96875
1769484265.2026563,-16.6015625,-19.04296875,-45.8984375,-53.7109375
1769484265.2065625,-33.203125,-22.94921875,-39.55078125,-55.6640625
1769484265.2104688,-19.04296875,-14.6484375,-36.62109375,-41.015625
1769484265.214375,-4.39453125,-7.8125,-36.62109375,-21.97265625
1769484265.2182813,-19.53125,-17.08984375,-32.2265625,-26.3671875
1769484265.2221875,-18.06640625,-10.7421875,-26.3671875,-30.2734375
1769484265.2260938,5.37109375,-4.39453125,-24.90234375,-19.53125
1769484265.244125,5.37109375,-10.7421875,-27.34375,-13.671875
1769484265.2480311,9.765625,-14.16015625,-33.203125,-23.92578125
1769484265.2519374,-16.6015625,-19.53125,-40.52734375,-49.31640625
1769484265.2558436,-40.0390625,-17.08984375,-39.0625,-53.22265625
1769484265.25975,-2.9296875,-6.34765625,-32.71484375,-19.04296875
1769484265.2636561,12.20703125,-7.32421875,-34.66796875,-12.6953125
1769484265.2675624,-8.30078125,-8.7890625,-33.69140625,-43.45703125
1769484265.2714686,-27.83203125,-8.30078125,-37.59765625,-63.4765625
1769484265.275375,-2.44140625,-8.7890625,-47.36328125,-50.29296875
1769484265.2792811,-0.48828125,-17.08984375,-49.8046875,-53.7109375
1769484265.2831874,-23.4375,-27.83203125,-47.8515625,-62.01171875
1769484265.2870936,-49.31640625,-33.69140625,-49.31640625,-67.3828125
1769484265.289125,-58.59375,-38.0859375,-53.22265625,-70.3125
1769484265.2930312,-20.99609375,-32.2265625,-53.22265625,-47.8515625
1769484265.2969375,-17.08984375,-28.80859375,-56.15234375,-48.33984375
1769484265.3008437,-49.31640625,-29.296875,-62.01171875,-63.4765625
1769484265.30475,-38.57421875,-32.71484375,-60.05859375,-57.6171875
1769484265.3086562,-16.11328125,-35.15625,-57.12890625,-42.48046875
1769484265.3125625,-8.30078125,-32.2265625,-57.12890625,-39.0625
1769484265.3164687,-26.3671875,-30.2734375,-55.17578125,-59.08203125
1769484265.320375,-35.64453125,-35.15625,-54.6875,-60.546875
1769484265.3242812,1.46484375,-36.1328125,-53.7109375,-32.71484375
1769484265.3281875,-16.6015625,-33.203125,-53.7109375,-30.2734375
1769484265.3320937,-63.4765625,-39.55078125,-50.29296875,-43.9453125
1769484265.348125,-60.546875,-41.9921875,-48.828125,-57.12890625
1769484265.3520312,-6.8359375,-34.1796875,-55.6640625,-57.6171875
1769484265.3559375,-6.8359375,-38.0859375,-58.59375,-48.33984375
1769484265.3598437,-51.7578125,-40.0390625,-52.24609375,-52.734375
1769484265.36375,-59.5703125,-40.52734375,-51.26953125,-64.453125
1769484265.3676562,-35.15625,-39.55078125,-52.734375,-47.36328125
1769484265.3715625,-17.08984375,-40.0390625,-49.31640625,-28.80859375
1769484265.3754687,-37.109375,-42.48046875,-53.22265625,-43.9453125
1769484265.379375,-54.6875,-41.015625,-47.36328125,-56.15234375
1769484265.3832812,-42.96875,-37.109375,-41.015625,-41.9921875
1769484265.3871875,-31.25,-39.55078125,-48.828125,-29.296875
1769484265.3910937,-45.8984375,-43.9453125,-54.6875,-41.50390625
1769484265.409125,-73.2421875,-41.015625,-50.78125,-57.6171875
1769484265.4130313,-66.40625,-38.0859375,-47.36328125,-56.15234375
1769484265.4169376,-32.71484375,-28.80859375,-45.8984375,-41.9921875
1769484265.4208438,-30.2734375,-27.83203125,-41.9921875,-32.2265625
1769484265.42475,-58.59375,-35.15625,-45.8984375,-51.26953125
1769484265.4286563,-64.453125,-31.25,-46.875,-59.5703125
1769484265.4325626,-41.9921875,-25.390625,-43.9453125,-36.62109375
1769484265.4364688,-35.64453125,-15.13671875,-44.43359375,-35.15625
1769484265.440375,-41.9921875,-4.8828125,-46.875,-54.19921875
1769484265.4442813,-52.734375,-1.953125,-43.9453125,-66.89453125
1769484265.4481876,-56.640625,-2.44140625,-39.55078125,-62.01171875
1769484265.4520938,-34.1796875,-1.953125,-40.52734375,-51.26953125
1769484265.472125,-18.5546875,1.953125,-44.921875,-62.5
1769484265.4760313,-50.78125,4.8828125,-44.43359375,-84.47265625
1769484265.4799376,-57.6171875,6.8359375,-38.57421875,-75.68359375
1769484265.4838438,-27.34375,5.37109375,-39.55078125,-61.03515625
1769484265.48775,-18.5546875,-0.48828125,-42.96875,-63.96484375
1769484265.4916563,-31.25,-4.8828125,-41.9921875,-81.0546875
1769484265.4955626,-44.921875,-9.27734375,-39.0625,-87.890625
1769484265.4994688,-26.3671875,-18.5546875,-45.41015625,-68.359375
1769484265.503375,-19.04296875,-20.99609375,-48.828125,-60.05859375
1769484265.5072813,-35.64453125,-18.5546875,-46.38671875,-79.1015625
1769484265.5111876,-49.31640625,-18.06640625,-45.8984375,-91.796875
1769484265.5150938,-58.59375,-18.5546875,-42.48046875,-94.23828125
1769484265.477125,-47.8515625,-15.13671875,-36.1328125,-79.58984375
1769484265.4810312,-46.38671875,-17.08984375,-35.64453125,-76.66015625
1769484265.4849374,-69.82421875,-22.4609375,-35.64453125,-100.09765625
1769484265.4888437,-43.45703125,-20.01953125,-31.73828125,-82.51953125
1769484265.49275,-11.71875,-12.20703125,-28.80859375,-52.734375
1769484265.4966562,-14.6484375,-12.20703125,-27.34375,-47.36328125
1769484265.5005624,-31.25,-13.18359375,-28.80859375,-59.5703125
1769484265.5044687,-39.55078125,-12.6953125,-31.25,-58.10546875
1769484265.508375,-13.671875,-13.671875,-35.15625,-35.15625
1769484265.5122812,-12.6953125,-8.7890625,-35.64453125,-25.87890625
1769484265.5161874,-33.203125,-4.8828125,-39.55078125,-47.36328125
1769484265.5200937,-28.80859375,-0.9765625,-41.015625,-48.828125
1769484265.529125,-3.41796875,-2.44140625,-37.59765625,-18.06640625
1769484265.5330312,0.9765625,-7.8125,-39.0625,-5.859375
1769484265.5369375,-20.99609375,-11.71875,-34.1796875,-24.90234375
1769484265.5408437,-25.390625,-14.6484375,-31.25,-45.8984375
1769484265.54475,-4.39453125,-9.765625,-38.0859375,-26.3671875
1769484265.5486562,-5.37109375,-12.20703125,-41.015625,-4.39453125
1769484265.5525625,-15.13671875,-18.06640625,-36.62109375,-8.7890625
1769484265.5564687,-32.2265625,-17.578125,-32.2265625,-34.66796875
1769484265.560375,-25.87890625,-15.13671875,-30.2734375,-33.69140625
1769484265.5642812,-5.37109375,-16.6015625,-31.73828125,-7.32421875
1769484265.5681875,-3.90625,-10.25390625,-36.1328125,-4.8828125
1769484265.5720937,-16.6015625,-11.71875,-36.62109375,-25.87890625
1769484265.573125,-22.94921875,-11.23046875,-37.109375,-27.83203125
1769484265.5770311,-16.6015625,-12.6953125,-44.43359375,-12.20703125
1769484265.5809374,-17.08984375,-13.18359375,-39.55078125,0.48828125
1769484265.5848436,-24.90234375,-7.8125,-29.296875,-4.8828125
1769484265.58875,-27.83203125,-5.37109375,-31.25,-27.83203125
1769484265.5926561,-15.13671875,-4.39453125,-32.2265625,-7.8125
1769484265.5965624,-1.953125,-6.8359375,-33.69140625,1.46484375
1769484265.6004686,-16.11328125,-13.671875,-31.25,-25.390625
1769484265.604375,-23.92578125,-20.99609375,-25.87890625,-18.5546875
1769484265.6082811,-18.5546875,-16.6015625,-36.62109375,-7.8125
1769484265.6121874,-18.06640625,-14.6484375,-42.96875,-17.08984375
1769484265.6160936,-24.90234375,-10.7421875,-32.2265625,-15.13671875
1769484265.603125,-40.0390625,-6.8359375,-26.85546875,-21.484375
1769484265.6070313,-45.41015625,-9.765625,-33.69140625,-39.0625
1769484265.6109376,-24.4140625,-10.7421875,-38.57421875,-29.78515625
1769484265.6148438,-20.99609375,-12.6953125,-41.9921875,-18.06640625
1769484265.61875,-38.0859375,-16.6015625,-44.43359375,-46.38671875
1769484265.6226563,-45.8984375,-17.08984375,-38.57421875,-54.19921875
1769484265.6265626,-18.06640625,-14.6484375,-33.203125,-29.78515625
1769484265.6304688,-12.20703125,-20.99609375,-37.109375,-23.92578125
1769484265.634375,-38.0859375,-20.5078125,-40.52734375,-46.875
1769484265.6382813,-43.45703125,-15.625,-36.62109375,-62.5
1769484265.6421876,-21.484375,-14.6484375,-32.71484375,-36.62109375
1769484265.6460938,6.8359375,-5.859375,-34.66796875,-8.30078125
1769484265.663125,-25.87890625,-9.27734375,-38.0859375,-33.203125
1769484265.6670313,-51.7578125,-15.625,-40.52734375,-60.05859375
1769484265.6709375,-26.3671875,-11.23046875,-41.50390625,-41.9921875
1769484265.6748438,-19.53125,-12.20703125,-41.50390625,-25.390625
1769484265.67875,-29.296875,-16.6015625,-42.48046875,-32.71484375
1769484265.6826563,-32.71484375,-11.71875,-34.1796875,-43.45703125
1769484265.6865625,-29.296875,-10.25390625,-29.296875,-43.45703125
1769484265.6904688,-14.16015625,-10.7421875,-33.203125,-26.85546875
1769484265.694375,-16.6015625,-11.71875,-31.73828125,-15.625
1769484265.6982813,-41.50390625,-18.06640625,-34.66796875,-36.1328125
1769484265.7021875,-52.734375,-24.4140625,-37.59765625,-60.05859375
1769484265.7060938,-31.73828125,-26.3671875,-35.15625,-47.36328125
1769484265.708125,-15.13671875,-29.78515625,-33.203125,-38.57421875
1769484265.7120314,-33.69140625,-33.203125,-31.25,-69.3359375
1769484265.7159376,-62.5,-36.62109375,-36.1328125,-95.21484375
1769484265.7198439,-41.50390625,-41.9921875,-38.57421875,-79.58984375
1769484265.72375,-15.625,-41.015625,-36.62109375,-62.5
1769484265.7276564,-20.5078125,-37.109375,-36.1328125,-70.80078125
1769484265.7315626,-46.38671875,-41.50390625,-39.55078125,-92.7734375
1769484265.7354689,-45.41015625,-36.1328125,-39.0625,-86.42578125
1769484265.739375,-25.390625,-33.69140625,-34.66796875,-72.75390625
1769484265.7432814,-40.52734375,-38.57421875,-32.2265625,-70.80078125
1769484265.7471876,-61.03515625,-37.59765625,-31.73828125,-84.9609375
1769484265.7510939,-34.1796875,-27.83203125,-28.80859375,-100.09765625
1769484265.757125,-22.94921875,-25.390625,-31.73828125,-86.9140625
1769484265.7610312,-28.3203125,-18.06640625,-31.73828125,-64.94140625
1769484265.7649374,-39.55078125,-19.53125,-30.76171875,-87.890625
1769484265.7688437,-42.96875,-22.4609375,-35.15625,-108.88671875
1769484265.77275,-17.578125,-15.625,-33.69140625,-83.0078125
1769484265.7766562,-12.20703125,-22.4609375,-32.2265625,-60.546875
1769484265.7805624,-46.875,-30.76171875,-36.1328125,-76.66015625
